, 1
. 2
the 3
of 4
- 5
at 6
is 7
its 8
in 9
% 10
inc 11
days 12
a 13
52-week 14
average 15
moving 16
and 17
to 18
volatility 19
stock 20
price 21
with 22
as 23
10 24
low 25
high 26
million 27
sma 28
past 29
range 30
on 31
by 32
terms 33
20 34
corp 35
trading 36
prices 37
previous 38
period 39
14 40
true 41
stands 42
for 43
20-day 44
has 45
below 46
above 47
volume 48
while 49
150-day 50
today 51
highest 52
lowest 53
moved 54
over 55
rose 56
which 57
addition 58
strength 59
look 60
volatile 61
relatively 62
closes 63
group 64
was 65
changed 66
maker 67
this 68
fluctuates 69
wildly 70
other 71
words 72
highly 73
american 74
movement 75
displays 76
pattern 77
(14) 78
company 79
showed 80
out 81
3 82
weeks 83
move 84
data 85
from 86
dropped 87
up 88
down 89
last 90
pharmaceuticals 91
days. 92
volatile. 93
inc. 94
were 95
valued 96
total 97
raised 98
10-day 99
given 100
appears 101
be 102
based 103
simple 104
(sma) 105
exponential 106
(ema) 107
also 108
weighted 109
toward 110
same 111
anverages 112
calculated 113
considering 114
long 115
term 116
trend 117
compared 118
within 119
exceeds 120
falls 121
behind 122
shares 123
50-day 124
traded 125
currently 126
upon 127
closing 128
bell 129
peak 130
bottom 131
values 132
co 133
holdings 134
financial 135
investment 136
plc 137
ltd 138
ago 139
than 140
implies 141
earlier 142
record 143
pace 144
fields 145
optimism 146
new 147
version 148
applications 149
goes 150
reach 151
today's 152
after 153
much 154
ealier 155
air 156
an 157
acadia 158
advanced 159
trust 160
& 161
international 162
technologies 163
applied 164
gives 165
(rsi) 166
momentum 167
indicator 168
macd 169
that 170
amc 171
holding 172
realty 173
atlas 174
industries 175
ashford 176
hospitality 177
therapeutics 178
devices 179
technology 180
industrial 181
worldwide 182
energy 183
(the) 184
systems 185
gained 186
jumped 187
more 188
gains 189
surged 190
increased 191
increase 192
surging 193
decrease 194
declined 195
climbed 196
less 197
fell 198
loss 199
slid 200
tumbling 201
0.19 202
recorded 203
suggestion 204
0.18 205
relative 206
index 207
considered 208
hence 209
investor 210
should 211
opportunities. 212
0.23 213
0.25 214
abm 215
buy. 216
oversold 217
buying 218
showing 219
strong 220
another 221
trend-following 222
shows 223
relationship 224
between 225
two 226
averages 227
it 228
suggests 229
security 230
overbought. 231
agnc 232
amag 233
aes 234
0.22 235
acco 236
0.24 237
0.28 238
not 239
aaon 240
0.21 241
0.33 242
agco 243
0.27 244
0.26 245
0.17 246
0.38 247
0.31 248
0.62 249
0.65 250
0.37 251
0.41 252
0.63 253
0.36 254
0.35 255
0.16 256
0.46 257
0.45 258
0.15 259
0.32 260
0.29 261
0.44 262
0.34 263
0.58 264
0.39 265
0.14 266
0.13 267
0.66 268
0.59 269
0.53 270
0.69 271
0.55 272
0.49 273
0.61 274
0.67 275
0.64 276
0.71 277
0.42 278
0.47 279
0.68 280
0.73 281
0.72 282
0.57 283
0.74 284
0.43 285
0.52 286
advance 287
auto 288
parts 289
alexander's 290
agree 291
0.54 292
allergan 293
agenus 294
amtrust 295
services 296
alexander 297
baldwin 298
adtran 299
0.76 300
argan 301
campus 302
communities 303
alexion 304
ares 305
commercial 306
real 307
estate 308
equity 309
life 310
assets 311
amerisourcebergen 312
achaogen 313
inc/de 314
alaska 315
0.56 316
0.75 317
arch 318
capital 319
0.51 320
alder 321
biopharmaceuticals 322
healthcare 323
ak 324
steel 325
amedisys 326
allison 327
transmission 328
ameris 329
achillion 330
arlington 331
asset 332
ambac 333
aceto 334
eagle 335
outfitters 336
amgen 337
ameren 338
allegion 339
micro 340
bancorp 341
emissions 342
solutions 343
adamas 344
amber 345
road 346
abbott 347
electric 348
power 349
amkor 350
acorda 351
assurant 352
0.84 353
autodesk 354
altra 355
motion 356
0.48 357
armada 358
hoffler 359
properties 360
acacia 361
research 362
alico 363
almost 364
family 365
abaxis 366
corporation 367
national 368
bankshares 369
prime 370
laboratories 371
brands 372
aerie 373
alnylam 374
aspen 375
insurance 376
allegiant 377
travel 378
aaron's 379
0.81 380
akamai 381
akebia 382
aegion 383
aetna 384
affiliated 385
managers 386
networks 387
ameriprise 388
assured 389
guaranty 390
accenture 391
analog 392
argo 393
archer-daniels-midland 394
alkermes 395
entertainment 396
airlines 397
agios 398
optoelectronics 399
automatic 400
processing 401
apartment 402
management 403
allete 404
alliance 405
align 406
arthur 407
gallagher 408
0.12 409
aar 410
analogic 411
axcelis 412
aci 413
adobe 414
federal 415
agricultural 416
mortgage 417
ambarella 418
addus 419
homecare 420
aflac 421
adams 422
resources 423
albemarle 424
allstate 425
akorn 426
0.82 427
asbury 428
automotive 429
abiomed 430
0.83 431
apple 432
materials 433
abbvie 434
aecom 435
lease 436
alamo 437
agilysys 438
albany 439
0.87 440
acxiom 441
0.11 442
0.78 443
ametek 444
0.79 445
0.77 446
0.88 447
0.85 448
0.92 449
0.89 450
0.91 451
0.93 452
0.86 453
0.94 454
0.09 455
0.98 456
corp. 457
0.08 458
0.95 459
1.08 460
1.01 461
0.99 462
0.07 463
1.07 464
0.96 465
0.97 466
1.06 467
1.14 468
1.04 469
j 470
1.11 471
1.03 472
1.12 473
1.22 474
1.09 475
1.02 476
1.05 477
inc's 478
1.28 479
1.15 480
1.17 481
1.13 482
1.19 483
1.26 484
1.23 485
1.16 486
1.24 487
0.06 488
1.18 489
0.3 490
0.20 491
1.48 492
0.01 493
1.25 494
1.21 495
0.6 496
0.7 497
0.2 498
1.27 499
1.31 500
1.32 501
1.45 502
1.34 503
1.44 504
0.5 505
0.4 506
1.42 507
1.35 508
1.33 509
1.37 510
1.39 511
1.46 512
1.29 513
1.49 514
1.47 515
1.52 516
1.43 517
1.41 518
1.38 519
0.05 520
1.51 521
alcoa 522
1.36 523
0.8 524
0.30 525
1.61 526
0.10 527
0.9 528
1.56 529
1.68 530
1.55 531
1.69 532
0.60 533
1.77 534
1.53 535
1.54 536
1.72 537
0.70 538
1.64 539
1.74 540
0.00 541
0.04 542
1.57 543
1.71 544
1.66 545
1.73 546
1.58 547
1.65 548
1.76 549
1.79 550
1.67 551
1.63 552
1.0 553
0.03 554
1.83 555
1.92 556
0.40 557
1.59 558
1.95 559
1.82 560
1.88 561
1.75 562
0.02 563
0.50 564
1.86 565
1.84 566
2.01 567
co. 568
1.81 569
1.87 570
1.62 571
1.99 572
1.91 573
1.96 574
1.78 575
1.94 576
1.1 577
1.2 578
1.93 579
1.85 580
2.04 581
2.05 582
1.89 583
2.06 584
0.80 585
2.07 586
2.02 587
1.98 588
1.3 589
1.97 590
2.03 591
2.18 592
2.16 593
2.15 594
2.08 595
0.1 596
0.90 597
2.17 598
1.4 599
3.95 600
2.19 601
0.0 602
2.23 603
2.26 604
2.44 605
2.13 606
2.11 607
2.21 608
2.14 609
2.32 610
2.35 611
2.41 612
2.27 613
2.29 614
2.31 615
2.47 616
2.55 617
2.33 618
2.09 619
2.52 620
1.00 621
2.25 622
1.5 623
2.34 624
2.54 625
2.68 626
2.24 627
akr 628
amkr 629
2.48 630
1.6 631
acxm 632
2.39 633
abg 634
ads 635
aan 636
2.69 637
3.69 638
2.12 639
aap 640
acc 641
acor 642
agys 643
ahh 644
ahp 645
2.57 646
2.58 647
2.38 648
adsk 649
ait 650
abbv 651
achn 652
aciw 653
adms 654
afg 655
agm 656
aiv 657
aiz 658
amba 659
ambr 660
2.42 661
actg 662
adtn 663
ahl 664
alk 665
abt 666
acls 667
akba 668
alb 669
aaoi 670
aeis 671
akrx 672
ambc 673
ame 674
2.22 675
adbe 676
ades 677
afsi 678
aimc 679
al 680
alco 681
abmd 682
ai 683
akao 684
amcx 685
amed 686
aal 687
aapl 688
acre 689
ae 690
ale 691
alx 692
amg 693
2.43 694
2.71 695
4.15 696
acet 697
acm 698
aeri 699
2.37 700
aat 701
aegn 702
aeo 703
agx 704
aig 705
alle 706
abcb 707
acad 708
adp 709
ain 710
alog 711
2.56 712
2.36 713
aet 714
afl 715
agii 716
agio 717
aldr 718
alex 719
alks 720
acn 721
ael 722
ajg 723
aks 724
algt 725
amnb 726
2.78 727
2.45 728
2.28 729
aep 730
agn 731
2.64 732
aaww 733
acgl 734
achc 735
2.63 736
2.67 737
adm 738
adus 739
afam 740
amat 741
amd 742
3.65 743
adi 744
algn 745
all 746
amp 747
abax 748
alny 749
alsn 750
amgn 751
2.87 752
2.51 753
aht 754
alxn 755
4.05 756
2.89 757
afh 758
akam 759
alg 760
aee 761
3.45 762
abc 763
2.98 764
2.85 765
agen 766
3.01 767
2.76 768
3.72 769
adc 770
1.20 771
3.77 772
2.65 773
2.62 774
2.77 775
2.81 776
2.86 777
1.8 778
2.53 779
2.46 780
3.74 781
2.95 782
2.97 783
2.61 784
1.10 785
1.7 786
3.55 787
3.73 788
2.99 789
2.88 790
3.35 791
3.58 792
4.21 793
2.74 794
3.53 795
3.57 796
2.66 797
4.25 798
2.82 799
3.15 800
3.56 801
2.0 802
4.23 803
3.09 804
3.05 805
3.22 806
4.08 807
2.75 808
2.91 809
3.48 810
3.67 811
3.11 812
3.68 813
3.42 814
3.54 815
1.30 816
4.35 817
4.01 818
2.49 819
3.47 820
2.94 821
3.85 822
3.88 823
3.49 824
3.52 825
3.25 826
3.96 827
3.02 828
2.92 829
3.64 830
2.84 831
4.12 832
3.61 833
4.07 834
3.51 835
3.82 836
4.24 837
3.08 838
2.59 839
4.16 840
3.75 841
3.87 842
2.1 843
3.98 844
3.94 845
2.73 846
1.9 847
3.28 848
2.72 849
3.12 850
4.02 851
2.79 852
3.81 853
3.17 854
4.09 855
2.93 856
3.13 857
3.91 858
4.04 859
3.86 860
3.84 861
3.78 862
3.03 863
3.46 864
2.96 865
3.79 866
3.83 867
4.11 868
3.66 869
3.97 870
4.17 871
3.76 872
4.13 873
3.59 874
2.83 875
3.62 876
3.92 877
13.25 878
3.63 879
13.15 880
3.19 881
4.38 882
4.19 883
3.32 884
3.93 885
3.27 886
3.33 887
4.26 888
11.15 889
3.21 890
1.40 891
4.55 892
3.41 893
4.32 894
4.45 895
3.16 896
3.99 897
3.04 898
4.22 899
4.34 900
j. 901
3.34 902
3.06 903
4.29 904
3.71 905
3.44 906
3.18 907
4.06 908
3.14 909
12.85 910
4.39 911
4.27 912
3.37 913
4.59 914
3.07 915
13.05 916
corp's 917
3.29 918
3.38 919
3.26 920
3.36 921
1.50 922
2.5 923
5.25 924
3.31 925
4.43 926
1.60 927
4.37 928
4.56 929
3.39 930
3.43 931
4.42 932
4.36 933
3.24 934
4.1 935
4.18 936
4.0 937
3.89 938
12.95 939
4.03 940
inc.'s 941
4.33 942
4.41 943
11.45 944
4.2 945
6.44 946
2.6 947
3.9 948
4.31 949
11.2 950
4.28 951
13.29 952
3.23 953
4.14 954
2.2 955
11.21 956
4.52 957
4.47 958
4.54 959
6.46 960
4.61 961
2.9 962
6.17 963
11.16 964
13.28 965
11.65 966
13.21 967
2.3 968
4.63 969
6.24 970
11.18 971
5.65 972
10.25 973
5.61 974
6.19 975
13.35 976
5.45 977
6.25 978
6.47 979
4.57 980
10.65 981
13.18 982
4.65 983
13.55 984
4.49 985
12.55 986
4.3 987
12.75 988
50.0 989
13.65 990
6.39 991
4.48 992
10.55 993
6.32 994
6.43 995
4.66 996
4.53 997
6.13 998
13.19 999
6.22 1000
2017-05-15 1001
6.29 1002
3.7 1003
6.35 1004
4.87 1005
13.14 1006
4.86 1007
6.45 1008
4.58 1009
5.15 1010
4.44 1011
5.33 1012
11.17 1013
4.72 1014
14.35 1015
11.35 1016
11.19 1017
2.4 1018
2017-05-30 1019
2.00 1020
4.77 1021
5.08 1022
5.28 1023
2017-10-25 1024
2017-11-30 1025
4.68 1026
4.89 1027
10.45 1028
13.45 1029
6.28 1030
13.16 1031
2017-09-26 1032
2017-11-17 1033
2017-11-27 1034
11.31 1035
2017-12-22 1036
5.75 1037
13.22 1038
6.34 1039
11.75 1040
6.11 1041
10.13 1042
2017-09-20 1043
11.25 1044
2017-08-21 1045
2017-11-16 1046
2018-01-10 1047
3.5 1048
2017-08-04 1049
6.31 1050
11.78 1051
4.64 1052
5.01 1053
13.95 1054
1.70 1055
6.33 1056
2017-08-16 1057
2.8 1058
11.12 1059
2017-04-12 1060
2017-04-18 1061
2017-04-19 1062
13.23 1063
2017-05-26 1064
2017-06-14 1065
2017-06-23 1066
2017-10-27 1067
2018-01-05 1068
2018-01-11 1069
2017-03-01 1070
4.71 1071
2017-03-09 1072
2017-05-18 1073
11.23 1074
3.6 1075
4.81 1076
6.09 1077
10.75 1078
12.99 1079
2017-08-17 1080
2017-08-23 1081
2017-08-25 1082
2017-09-11 1083
2017-10-03 1084
2017-10-10 1085
2017-10-23 1086
2018-01-25 1087
2018-02-13 1088
2018-02-14 1089
2017-04-21 1090
2017-05-05 1091
2017-06-30 1092
2017-07-21 1093
13.09 1094
11.05 1095
13.38 1096
aa 1097
2017-08-15 1098
2017-12-06 1099
2018-02-02 1100
2018-02-05 1101
2018-02-16 1102
2017-03-03 1103
2017-04-24 1104
2017-06-29 1105
3.8 1106
4.4 1107
4.76 1108
6.67 1109
11.28 1110
6.21 1111
5.58 1112
2017-08-24 1113
3.4 1114
13.24 1115
6.23 1116
2017-11-03 1117
2017-06-22 1118
2017-07-06 1119
5.93 1120
6.27 1121
10.95 1122
1.90 1123
5.17 1124
6.38 1125
2017-10-11 1126
2017-10-19 1127
2017-11-14 1128
2017-11-29 1129
2017-12-12 1130
2018-02-20 1131
9.55 1132
2017-03-27 1133
4.91 1134
1.80 1135
2017-05-12 1136
2017-05-23 1137
2017-06-05 1138
2017-07-19 1139
9.82 1140
6.12 1141
10.48 1142
4.46 1143
13.13 1144
10.15 1145
2017-09-06 1146
4.83 1147
2017-11-22 1148
2017-12-18 1149
2017-12-27 1150
2017-12-29 1151
2018-01-02 1152
2018-01-16 1153
2018-02-06 1154
2017-05-24 1155
2017-06-01 1156
2017-07-18 1157
5.82 1158
2017-08-29 1159
2017-09-13 1160
2017-09-21 1161
2017-09-22 1162
2017-11-02 1163
2017-12-14 1164
2017-12-21 1165
2017-04-26 1166
10.22 1167
2017-06-02 1168
2017-06-15 1169
13.75 1170
5.71 1171
4.67 1172
2017-08-14 1173
2017-08-22 1174
5.57 1175
2018-01-23 1176
2018-02-07 1177
2018-02-08 1178
2017-03-30 1179
2017-03-31 1180
2017-04-06 1181
2017-05-04 1182
2017-05-10 1183
2017-06-07 1184
2017-06-20 1185
5.23 1186
2017-08-11 1187
5.77 1188
2017-08-30 1189
36.75 1190
2017-10-18 1191
2017-10-26 1192
2017-11-15 1193
6.15 1194
2017-12-19 1195
2018-01-08 1196
2018-01-19 1197
2018-01-26 1198
2018-02-15 1199
5.64 1200
2017-03-10 1201
2017-03-21 1202
2017-04-04 1203
2017-04-10 1204
2017-05-31 1205
2017-06-19 1206
10.29 1207
2017-06-28 1208
2017-07-03 1209
2017-07-10 1210
2017-07-27 1211
13.01 1212
10.72 1213
2017-09-18 1214
2017-10-05 1215
2017-10-16 1216
2017-10-30 1217
2017-11-24 1218
2018-02-22 1219
2018-02-26 1220
2017-03-20 1221
2017-04-20 1222
5.92 1223
4.62 1224
6.06 1225
2017-07-14 1226
2017-07-31 1227
5.32 1228
11.14 1229
11.22 1230
5.53 1231
13.85 1232
5.48 1233
4.99 1234
2017-08-18 1235
2017-09-25 1236
2017-10-04 1237
2017-11-09 1238
2017-11-13 1239
2017-12-01 1240
2018-01-09 1241
2018-01-18 1242
2018-01-22 1243
2018-01-31 1244
2017-03-06 1245
2017-03-13 1246
2017-03-29 1247
2017-04-13 1248
2017-05-03 1249
5.44 1250
10.68 1251
2017-06-08 1252
5.35 1253
6.42 1254
2017-07-11 1255
2017-07-13 1256
11.24 1257
5.14 1258
13.02 1259
3.0 1260
11.56 1261
2017-09-01 1262
2017-09-27 1263
2017-09-29 1264
2017-10-06 1265
2017-10-24 1266
10.23 1267
2017-11-21 1268
5.59 1269
2018-02-28 1270
2017-04-27 1271
2017-05-25 1272
2017-06-12 1273
2017-06-13 1274
2017-07-12 1275
2017-07-25 1276
2017-08-03 1277
10.05 1278
14.05 1279
11.55 1280
2017-08-09 1281
2017-11-20 1282
5.03 1283
10.19 1284
2017-03-22 1285
2017-03-24 1286
2017-06-06 1287
2017-06-16 1288
2017-06-21 1289
2017-07-28 1290
2017-08-02 1291
13.17 1292
5.37 1293
10.77 1294
10.93 1295
14.15 1296
5.34 1297
13.12 1298
3.2 1299
2017-11-01 1300
2017-11-06 1301
2017-12-04 1302
2017-12-07 1303
2017-12-11 1304
2017-12-26 1305
2017-12-28 1306
2018-02-01 1307
2018-02-09 1308
2017-03-02 1309
2017-03-17 1310
2017-04-05 1311
2017-05-09 1312
2017-05-16 1313
2017-05-19 1314
2017-07-05 1315
2017-07-20 1316
4.79 1317
6.18 1318
12.65 1319
2.7 1320
10.11 1321
11.11 1322
2017-10-02 1323
2017-10-09 1324
5.21 1325
2017-10-17 1326
7.53 1327
2017-11-07 1328
2017-11-28 1329
2017-12-05 1330
2017-12-08 1331
2017-12-20 1332
2018-01-03 1333
2018-01-04 1334
2017-03-14 1335
2017-03-15 1336
2017-03-23 1337
2017-05-11 1338
4.51 1339
2017-07-17 1340
2017-08-01 1341
6.26 1342
13.32 1343
2017-10-13 1344
2017-10-31 1345
2017-12-15 1346
2018-01-29 1347
2017-03-07 1348
2017-04-07 1349
9.69 1350
6.53 1351
2017-07-07 1352
10.73 1353
11.07 1354
4.74 1355
9.87 1356
4.96 1357
5.63 1358
10.26 1359
5.47 1360
13.36 1361
2017-08-28 1362
2017-10-12 1363
4.84 1364
2017-12-13 1365
2018-01-12 1366
4.95 1367
2018-02-21 1368
2018-02-23 1369
2017-03-08 1370
11.29 1371
5.72 1372
10.56 1373
6.05 1374
11.27 1375
5.38 1376
13.0 1377
6.55 1378
9.83 1379
2017-08-10 1380
2017-08-31 1381
2017-09-08 1382
2017-10-20 1383
2017-11-10 1384
5.29 1385
2018-01-30 1386
2017-03-16 1387
2017-03-28 1388
4.88 1389
2017-04-17 1390
2017-05-08 1391
2017-07-26 1392
13.07 1393
4.82 1394
13.2 1395
13.11 1396
2017-09-05 1397
3.1 1398
2017-04-11 1399
2017-04-25 1400
10.58 1401
2017-05-02 1402
2017-06-09 1403
5.49 1404
5.56 1405
11.85 1406
2018-01-24 1407
2018-02-27 1408
2017-05-22 1409
2017-07-24 1410
13.08 1411
6.72 1412
10.52 1413
10.07 1414
2017-08-08 1415
2017-09-12 1416
2017-09-14 1417
5.76 1418
2018-02-12 1419
5.69 1420
13.34 1421
2017-06-27 1422
9.73 1423
5.79 1424
5.26 1425
10.32 1426
5.95 1427
6.37 1428
6.49 1429
2017-04-03 1430
11.37 1431
2017-05-17 1432
2017-06-26 1433
4.85 1434
9.46 1435
5.86 1436
14.25 1437
10.85 1438
2017-09-19 1439
2017-09-28 1440
13.26 1441
3.3 1442
13.27 1443
9.02 1444
13.64 1445
12.45 1446
9.85 1447
10.74 1448
12.25 1449
2018-01-17 1450
10.54 1451
4.73 1452
12.15 1453
11.03 1454
7.27 1455
6.07 1456
2017-05-01 1457
7.34 1458
10.97 1459
6.04 1460
6.16 1461
5.16 1462
9.49 1463
2017-09-07 1464
4.97 1465
4.69 1466
5.55 1467
6.02 1468
6.59 1469
10.47 1470
4.98 1471
11.38 1472
12.93 1473
10.12 1474
4.78 1475
9.14 1476
2017-04-28 1477
13.37 1478
13.43 1479
6.36 1480
12.35 1481
10.51 1482
10.78 1483
5.19 1484
11.42 1485
10.03 1486
5.02 1487
5.12 1488
11.26 1489
13.1 1490
11.47 1491
5.62 1492
2017-09-15 1493
10.59 1494
5.05 1495
4.94 1496
5.54 1497
5.67 1498
7.77 1499
5.87 1500
10.76 1501
5.09 1502
10.69 1503
5.66 1504
5.99 1505
11.43 1506
13.39 1507
13.04 1508
7.25 1509
10.14 1510
5.89 1511
9.96 1512
7.36 1513
6.48 1514
5.68 1515
13.76 1516
7.87 1517
9.97 1518
9.94 1519
10.71 1520
10.92 1521
2017-08-07 1522
5.31 1523
9.56 1524
6.61 1525
6.63 1526
5.24 1527
61.35 1528
11.09 1529
5.13 1530
12.71 1531
12.02 1532
6.51 1533
4.75 1534
4.93 1535
11.06 1536
10.31 1537
9.77 1538
13.63 1539
6.74 1540
5.42 1541
9.65 1542
10.61 1543
13.58 1544
13.42 1545
5.85 1546
10.17 1547
10.42 1548
4.92 1549
11.64 1550
5.98 1551
12.88 1552
11.32 1553
5.43 1554
5.96 1555
5.18 1556
10.27 1557
5.36 1558
10.06 1559
11.58 1560
10.28 1561
9.54 1562
10.16 1563
5.46 1564
10.79 1565
11.34 1566
10.43 1567
9.52 1568
9.95 1569
13.06 1570
10.33 1571
12.36 1572
7.39 1573
5.06 1574
10.37 1575
11.48 1576
5.74 1577
10.62 1578
12.92 1579
7.68 1580
9.15 1581
6.66 1582
10.82 1583
5.27 1584
7.65 1585
12.42 1586
6.69 1587
4.8 1588
6.54 1589
5.22 1590
5.41 1591
11.96 1592
11.33 1593
9.27 1594
15.25 1595
10.35 1596
14.45 1597
12.96 1598
36.25 1599
5.78 1600
13.33 1601
6.08 1602
11.36 1603
9.47 1604
10.49 1605
9.91 1606
12.86 1607
7.37 1608
11.61 1609
12.78 1610
5.88 1611
5.83 1612
13.47 1613
6.71 1614
11.63 1615
4.5 1616
7.33 1617
9.45 1618
41.75 1619
6.92 1620
5.51 1621
10.98 1622
10.09 1623
7.42 1624
11.76 1625
10.38 1626
4.6 1627
11.84 1628
12.05 1629
14.85 1630
6.52 1631
6.65 1632
9.25 1633
5.0 1634
5.52 1635
9.51 1636
11.4 1637
5.84 1638
5.07 1639
6.41 1640
11.39 1641
10.89 1642
5.73 1643
5.91 1644
6.57 1645
7.45 1646
11.95 1647
6.87 1648
33.33 1649
13.48 1650
47.55 1651
7.55 1652
11.13 1653
13.31 1654
14.75 1655
9.66 1656
9.64 1657
13.4 1658
10.64 1659
6.84 1660
5.39 1661
11.52 1662
10.04 1663
10.66 1664
14.55 1665
7.41 1666
13.3 1667
15.15 1668
6.03 1669
10.81 1670
21.35 1671
13.44 1672
13.49 1673
10.5 1674
9.48 1675
11.67 1676
9.67 1677
9.58 1678
6.89 1679
10.86 1680
11.72 1681
7.31 1682
12.9 1683
11.74 1684
6.73 1685
36.55 1686
3.90 1687
13.66 1688
8.29 1689
9.13 1690
9.31 1691
11.81 1692
12.97 1693
5.04 1694
7.61 1695
61.75 1696
20.05 1697
12.98 1698
9.24 1699
10.53 1700
12.07 1701
12.72 1702
6.4 1703
13.41 1704
14.07 1705
2.60 1706
6.99 1707
10.18 1708
22.85 1709
13.5 1710
11.08 1711
19.75 1712
47.65 1713
9.92 1714
37.15 1715
9.53 1716
5.81 1717
34.95 1718
6.93 1719
47.05 1720
13.81 1721
6.56 1722
10.63 1723
12.12 1724
9.62 1725
7.02 1726
9.42 1727
7.67 1728
11.02 1729
10.9 1730
7.92 1731
7.79 1732
9.74 1733
13.72 1734
12.89 1735
7.38 1736
13.56 1737
9.28 1738
10.8 1739
7.14 1740
22.55 1741
37.55 1742
11.88 1743
12.39 1744
11.04 1745
16.15 1746
13.52 1747
6.88 1748
6.76 1749
7.62 1750
14.22 1751
13.51 1752
2.90 1753
9.93 1754
9.84 1755
14.16 1756
21.85 1757
12.37 1758
7.51 1759
19.95 1760
9.7 1761
6.75 1762
14.26 1763
10.91 1764
13.89 1765
14.29 1766
10.36 1767
11.66 1768
12.43 1769
13.74 1770
11.69 1771
9.71 1772
6.64 1773
9.57 1774
2.10 1775
11.01 1776
6.7 1777
13.54 1778
6.58 1779
10.94 1780
14.23 1781
37.25 1782
10.02 1783
5.8 1784
7.18 1785
7.56 1786
9.68 1787
11.59 1788
9.86 1789
6.81 1790
12.94 1791
10.67 1792
9.75 1793
37.75 1794
47.75 1795
14.12 1796
9.07 1797
11.0 1798
6.68 1799
14.65 1800
4.7 1801
7.85 1802
5.94 1803
10.08 1804
13.67 1805
61.45 1806
10.2 1807
13.57 1808
15.45 1809
21.05 1810
11.51 1811
9.11 1812
10.41 1813
8.28 1814
11.54 1815
10.34 1816
10.46 1817
7.43 1818
8.87 1819
4.9 1820
11.41 1821
7.08 1822
9.35 1823
14.13 1824
11.44 1825
8.73 1826
36.65 1827
7.46 1828
9.78 1829
9.98 1830
6.91 1831
9.39 1832
9.44 1833
7.73 1834
5.7 1835
13.62 1836
11.49 1837
12.8 1838
9.88 1839
45.25 1840
7.91 1841
16.35 1842
9.99 1843
7.47 1844
13.53 1845
14.01 1846
7.59 1847
11.83 1848
14.19 1849
18.65 1850
14.95 1851
11.8 1852
10.44 1853
20.0 1854
48.25 1855
36.95 1856
13.46 1857
10.21 1858
5.1 1859
10.39 1860
11.57 1861
10.99 1862
9.63 1863
9.8 1864
6.14 1865
12.5 1866
2.50 1867
7.96 1868
11.62 1869
12.79 1870
13.82 1871
12.77 1872
14.06 1873
12.48 1874
8.37 1875
7.75 1876
7.63 1877
4.00 1878
14.38 1879
11.68 1880
7.49 1881
10.57 1882
13.7 1883
12.24 1884
44.35 1885
47.45 1886
4.20 1887
2.30 1888
11.73 1889
9.59 1890
9.89 1891
12.28 1892
11.20 1893
7.97 1894
10.83 1895
12.69 1896
20.15 1897
9.72 1898
7.76 1899
9.19 1900
13.03 1901
5.5 1902
6.98 1903
15.35 1904
6.62 1905
8.05 1906
36.85 1907
7.64 1908
12.38 1909
41.85 1910
7.74 1911
12.18 1912
15.05 1913
9.43 1914
14.2 1915
19.85 1916
12.01 1917
7.24 1918
9.36 1919
11.3 1920
10.87 1921
13.59 1922
5.97 1923
11.71 1924
13.86 1925
14.09 1926
11.86 1927
9.12 1928
8.11 1929
12.91 1930
6.85 1931
6.77 1932
10.4 1933
14.11 1934
14.48 1935
35.85 1936
47.35 1937
41.95 1938
10.01 1939
6.96 1940
8.17 1941
7.44 1942
7.71 1943
6.01 1944
7.01 1945
20.85 1946
13.94 1947
14.02 1948
11.82 1949
7.52 1950
22.35 1951
13.92 1952
6.0 1953
7.11 1954
48.15 1955
9.05 1956
13.69 1957
6.86 1958
9.32 1959
10.24 1960
12.06 1961
7.29 1962
8.86 1963
8.27 1964
6.94 1965
14.78 1966
11.5 1967
6.2 1968
14.17 1969
10.96 1970
20.25 1971
22.45 1972
14.04 1973
45.45 1974
15.55 1975
20.75 1976
7.95 1977
8.49 1978
11.79 1979
7.15 1980
10.84 1981
7.98 1982
7.72 1983
8.26 1984
61.55 1985
20.65 1986
21.45 1987
11.94 1988
32.65 1989
48.65 1990
5.6 1991
52.25 1992
7.17 1993
9.41 1994
44.85 1995
7.19 1996
7.28 1997
11.77 1998
14.31 1999
12.68 2000
37.65 2001
12.74 2002
13.87 2003
60.95 2004
22.05 2005
21.75 2006
19.65 2007
44.75 2008
11.99 2009
6.3 2010
7.26 2011
8.42 2012
12.0 2013
11.53 2014
7.78 2015
13.83 2016
13.9 2017
11.97 2018
13.96 2019
12.83 2020
9.26 2021
8.36 2022
9.16 2023
13.61 2024
2.40 2025
11.93 2026
5.2 2027
12.46 2028
8.93 2029
8.96 2030
12.54 2031
23.05 2032
15.0 2033
7.03 2034
12.23 2035
12.14 2036
7.16 2037
7.84 2038
10.3 2039
8.39 2040
6.5 2041
14.27 2042
7.57 2043
9.76 2044
9.08 2045
12.03 2046
14.52 2047
22.15 2048
9.09 2049
12.59 2050
12.7 2051
14.32 2052
13.99 2053
36.05 2054
8.84 2055
6.1 2056
9.38 2057
15.85 2058
7.21 2059
6.97 2060
61.95 2061
19.45 2062
60.85 2063
8.75 2064
38.95 2065
8.21 2066
11.6 2067
12.82 2068
53.85 2069
5.11 2070
12.04 2071
14.24 2072
2.20 2073
59.15 2074
9.37 2075
12.09 2076
9.03 2077
22.89 2078
13.68 2079
9.61 2080
8.02 2081
43.95 2082
13.71 2083
48.35 2084
46.75 2085
44.25 2086
8.12 2087
6.82 2088
7.06 2089
12.6 2090
17.25 2091
7.07 2092
12.19 2093
8.99 2094
8.33 2095
2.80 2096
8.24 2097
14.08 2098
10.0 2099
32.75 2100
14.43 2101
8.53 2102
9.81 2103
56.05 2104
16.05 2105
12.81 2106
11.9 2107
20.55 2108
47.25 2109
36.35 2110
45.55 2111
47.15 2112
4.10 2113
7.58 2114
45.15 2115
49.85 2116
13.98 2117
8.08 2118
7.22 2119
8.14 2120
11.92 2121
56.25 2122
12.47 2123
9.17 2124
36.45 2125
12.33 2126
10.7 2127
13.88 2128
14.36 2129
8.04 2130
6.95 2131
12.11 2132
14.37 2133
37.45 2134
12.84 2135
8.54 2136
44.05 2137
13.6 2138
7.48 2139
8.09 2140
7.81 2141
5.4 2142
14.57 2143
57.75 2144
7.69 2145
7.05 2146
11.46 2147
7.88 2148
6.79 2149
12.08 2150
7.23 2151
12.56 2152
12.73 2153
44.55 2154
14.34 2155
6.83 2156
49.45 2157
3.50 2158
6.78 2159
16.45 2160
35.25 2161
13.91 2162
5.9 2163
12.2 2164
9.21 2165
7.83 2166
15.31 2167
14.14 2168
43.15 2169
33.25 2170
12.61 2171
14.33 2172
46.15 2173
49.25 2174
8.31 2175
8.76 2176
54.85 2177
66.67 2178
14.9 2179
14.89 2180
12.76 2181
14.3 2182
12.58 2183
41.55 2184
43.88 2185
43.75 2186
44.24 2187
17.35 2188
8.01 2189
48.45 2190
6.6 2191
8.88 2192
35.45 2193
8.44 2194
14.99 2195
8.55 2196
13.97 2197
13.00 2198
13.77 2199
37.35 2200
15.95 2201
54.95 2202
3.40 2203
16.25 2204
13.79 2205
10.88 2206
63.65 2207
15.13 2208
23.15 2209
5.3 2210
12.62 2211
42.45 2212
43.85 2213
9.4 2214
56.15 2215
40.55 2216
7.12 2217
17.75 2218
21.15 2219
4.40 2220
43.45 2221
57.55 2222
7.86 2223
9.22 2224
14.44 2225
16.67 2226
13.73 2227
14.18 2228
58.05 2229
10.1 2230
4.30 2231
45.05 2232
42.35 2233
37.05 2234
22.98 2235
9.06 2236
19.25 2237
14.0 2238
14.21 2239
60.45 2240
13.8 2241
15.03 2242
33.05 2243
11.87 2244
12.22 2245
9.33 2246
22.91 2247
3.10 2248
47.58 2249
41.72 2250
3.70 2251
7.35 2252
46.55 2253
7.94 2254
7.09 2255
53.15 2256
8.58 2257
12.87 2258
12.4 2259
15.37 2260
11.7 2261
59.05 2262
60.15 2263
8.83 2264
58.95 2265
8.85 2266
14.1 2267
21.55 2268
41.49 2269
47.95 2270
9.23 2271
35.95 2272
22.65 2273
50.45 2274
20.45 2275
11.98 2276
12.64 2277
9.34 2278
8.16 2279
12.57 2280
56.55 2281
8.95 2282
8.03 2283
21.65 2284
23.45 2285
7.32 2286
15.38 2287
14.39 2288
49.35 2289
49.65 2290
8.57 2291
41.44 2292
41.38 2293
44.65 2294
43.63 2295
47.56 2296
33.85 2297
45.75 2298
34.85 2299
14.62 2300
22.57 2301
3.00 2302
14.59 2303
7.54 2304
8.97 2305
7.82 2306
7.3 2307
11.91 2308
44.02 2309
7.4 2310
40.52 2311
41.64 2312
8.35 2313
14.86 2314
47.85 2315
40.15 2316
33.45 2317
15.14 2318
48.55 2319
8.94 2320
15.02 2321
60.55 2322
15.06 2323
14.98 2324
10.6 2325
61.85 2326
62.05 2327
12.66 2328
13.78 2329
7.04 2330
7.66 2331
9.9 2332
20.35 2333
59.75 2334
13.84 2335
39.95 2336
46.25 2337
33.35 2338
7.89 2339
18.35 2340
48.95 2341
12.67 2342
32.97 2343
8.48 2344
15.33 2345
34.45 2346
14.4 2347
7.93 2348
14.56 2349
58.35 2350
56.85 2351
14.7 2352
58.45 2353
20.95 2354
22.25 2355
8.67 2356
14.97 2357
39.77 2358
44.36 2359
42.65 2360
43.98 2361
7.13 2362
50.35 2363
15.08 2364
17.05 2365
15.83 2366
48.85 2367
48.75 2368
28.57 2369
15.36 2370
15.2 2371
8.61 2372
22.95 2373
14.5 2374
35.65 2375
11.1 2376
15.75 2377
19.55 2378
37.85 2379
44.59 2380
41.67 2381
44.39 2382
54.55 2383
48.0 2384
43.65 2385
52.55 2386
12.29 2387
46.65 2388
43.43 2389
41.92 2390
7.99 2391
8.59 2392
21.64 2393
12.31 2394
22.94 2395
14.41 2396
53.75 2397
61.25 2398
61.6 2399
9.18 2400
39.75 2401
59.85 2402
60.65 2403
31.75 2404
14.53 2405
8.74 2406
9.5 2407
14.28 2408
19.9 2409
37.5 2410
43.09 2411
43.72 2412
47.44 2413
43.11 2414
42.15 2415
13.93 2416
42.81 2417
40.09 2418
8.79 2419
46.85 2420
58.55 2421
8.66 2422
14.72 2423
34.75 2424
12.41 2425
3.60 2426
14.67 2427
12.34 2428
22.66 2429
12.17 2430
41.65 2431
54.25 2432
8.69 2433
8.06 2434
52.75 2435
51.05 2436
22.74 2437
22.64 2438
14.81 2439
19.05 2440
17.65 2441
15.46 2442
58.65 2443
56.75 2444
21.25 2445
22.58 2446
12.21 2447
17.45 2448
14.42 2449
8.45 2450
14.66 2451
14.69 2452
47.46 2453
39.05 2454
39.65 2455
46.35 2456
38.65 2457
15.21 2458
41.31 2459
54.36 2460
53.55 2461
51.25 2462
44.31 2463
45.85 2464
12.49 2465
43.35 2466
43.83 2467
14.46 2468
15.43 2469
8.82 2470
3.80 2471
15.28 2472
22.99 2473
14.6 2474
64.05 2475
60.0 2476
57.95 2477
33.65 2478
6.9 2479
16.16 2480
21.95 2481
12.51 2482
13.10 2483
43.19 2484
45.24 2485
14.8 2486
42.75 2487
9.6 2488
22.77 2489
8.98 2490
60.25 2491
49.05 2492
8.78 2493
21.3 2494
14.64 2495
14.51 2496
8.71 2497
63.15 2498
22.71 2499
14.61 2500
59.25 2501
34.05 2502
32.05 2503
33.15 2504
55.85 2505
25.55 2506
22.86 2507
14.91 2508
36.92 2509
40.35 2510
39.93 2511
42.55 2512
36.84 2513
42.3 2514
44.29 2515
44.92 2516
55.25 2517
23.25 2518
41.99 2519
38.89 2520
20.5 2521
52.65 2522
40.05 2523
40.31 2524
60.75 2525
14.58 2526
9.79 2527
58.25 2528
61.65 2529
8.72 2530
8.25 2531
27.85 2532
16.75 2533
41.8 2534
40.32 2535
40.66 2536
46.45 2537
39.55 2538
41.62 2539
34.55 2540
41.58 2541
22.22 2542
33.06 2543
8.43 2544
50.85 2545
22.92 2546
21.73 2547
8.18 2548
39.15 2549
21.67 2550
41.71 2551
14.47 2552
14.68 2553
22.75 2554
12.32 2555
15.65 2556
8.38 2557
57.35 2558
12.63 2559
18.85 2560
36.9 2561
41.68 2562
15.34 2563
40.76 2564
32.95 2565
41.45 2566
36.47 2567
47.41 2568
48.05 2569
41.82 2570
41.86 2571
48.14 2572
8.52 2573
7.6 2574
50.65 2575
9.1 2576
12.53 2577
57.14 2578
27.89 2579
7.9 2580
60.35 2581
18.75 2582
21.47 2583
14.94 2584
14.83 2585
42.97 2586
8.68 2587
44.54 2588
41.18 2589
45.22 2590
44.37 2591
40.0 2592
47.5 2593
37.6 2594
45.95 2595
43.62 2596
43.68 2597
47.54 2598
49.23 2599
46.05 2600
41.15 2601
44.44 2602
14.88 2603
34.35 2604
42.92 2605
9.01 2606
8.65 2607
22.97 2608
14.49 2609
7.5 2610
14.76 2611
15.16 2612
15.27 2613
8.0 2614
15.44 2615
23.35 2616
16.85 2617
40.48 2618
18.25 2619
43.54 2620
48.33 2621
42.12 2622
48.13 2623
43.07 2624
41.77 2625
41.76 2626
14.74 2627
22.82 2628
20.31 2629
14.79 2630
8.15 2631
36.15 2632
54.15 2633
54.35 2634
8.07 2635
29.05 2636
17.85 2637
8.56 2638
40.75 2639
59.95 2640
39.85 2641
37.1 2642
8.47 2643
54.45 2644
27.45 2645
37.82 2646
42.11 2647
39.78 2648
47.42 2649
37.95 2650
48.2 2651
47.29 2652
41.61 2653
12.3 2654
44.95 2655
9.2 2656
44.32 2657
8.32 2658
58.16 2659
33.07 2660
62.45 2661
62.95 2662
42.03 2663
43.29 2664
43.05 2665
36.73 2666
8.41 2667
65.65 2668
15.17 2669
22.41 2670
23.86 2671
63.75 2672
67.25 2673
33.48 2674
7.7 2675
20.3 2676
57.85 2677
12.44 2678
16.65 2679
41.88 2680
44.0 2681
42.24 2682
32.0 2683
44.09 2684
47.66 2685
43.57 2686
42.19 2687
50.75 2688
33.26 2689
19.35 2690
12.16 2691
3.30 2692
58.75 2693
34.65 2694
21.6 2695
23.55 2696
15.23 2697
21.4 2698
42.61 2699
43.25 2700
47.28 2701
45.65 2702
35.71 2703
48.91 2704
47.7 2705
42.0 2706
16.06 2707
43.34 2708
57.5 2709
7.8 2710
11.89 2711
44.68 2712
44.11 2713
42.56 2714
50.25 2715
34.15 2716
47.9 2717
47.62 2718
54.86 2719
21.37 2720
59.65 2721
43.56 2722
39.35 2723
62.5 2724
43.59 2725
18.05 2726
40.45 2727
9.29 2728
31.85 2729
22.83 2730
15.87 2731
14.03 2732
14.73 2733
18.55 2734
21.34 2735
15.56 2736
22.56 2737
21.16 2738
47.23 2739
47.36 2740
40.22 2741
43.33 2742
41.87 2743
41.91 2744
47.3 2745
42.37 2746
26.95 2747
42.36 2748
43.69 2749
41.79 2750
42.86 2751
26.65 2752
51.35 2753
40.65 2754
8.91 2755
34.4 2756
49.75 2757
51.65 2758
15.24 2759
22.93 2760
35.0 2761
43.39 2762
44.3 2763
23.02 2764
21.06 2765
23.08 2766
34.25 2767
42.09 2768
47.2 2769
43.24 2770
8.2 2771
35.75 2772
44.34 2773
45.46 2774
36.14 2775
41.23 2776
47.49 2777
36.97 2778
35.73 2779
47.83 2780
38.25 2781
43.01 2782
43.08 2783
45.39 2784
33.09 2785
47.59 2786
43.28 2787
35.01 2788
15.54 2789
52.01 2790
62.0 2791
63.85 2792
37.67 2793
41.35 2794
57.45 2795
56.73 2796
55.35 2797
32.45 2798
63.45 2799
33.18 2800
33.75 2801
15.29 2802
21.7 2803
21.31 2804
21.39 2805
61.05 2806
21.43 2807
42.47 2808
37.78 2809
36.41 2810
49.15 2811
36.93 2812
44.43 2813
42.96 2814
40.47 2815
44.19 2816
46.95 2817
49.55 2818
47.87 2819
38.72 2820
41.5 2821
43.14 2822
50.55 2823
44.18 2824
57.05 2825
12.13 2826
42.25 2827
45.47 2828
43.81 2829
55.45 2830
21.56 2831
33.16 2832
48.94 2833
8.63 2834
50.95 2835
46.0 2836
14.93 2837
63.05 2838
15.39 2839
9.0 2840
16.28 2841
57.17 2842
21.82 2843
35.35 2844
64.75 2845
15.4 2846
21.32 2847
61.3 2848
21.0 2849
50.15 2850
56.45 2851
15.49 2852
15.84 2853
21.42 2854
26.75 2855
21.92 2856
56.87 2857
19.84 2858
15.61 2859
66.45 2860
24.25 2861
37.14 2862
43.99 2863
41.05 2864
42.13 2865
38.6 2866
42.6 2867
41.89 2868
47.53 2869
28.15 2870
43.41 2871
48.07 2872
42.29 2873
41.51 2874
45.41 2875
43.73 2876
8.8 2877
33.95 2878
42.14 2879
22.59 2880
81.11 2881
20.07 2882
22.26 2883
48.57 2884
58.0 2885
53.45 2886
15.22 2887
36.24 2888
35.55 2889
40.41 2890
38.35 2891
22.53 2892
38.86 2893
8.7 2894
43.44 2895
41.33 2896
17.42 2897
22.67 2898
15.07 2899
65.85 2900
14.63 2901
20.2 2902
16.55 2903
22.76 2904
8.62 2905
21.36 2906
43.17 2907
44.12 2908
42.17 2909
42.53 2910
45.08 2911
39.14 2912
41.13 2913
38.75 2914
44.48 2915
43.37 2916
39.49 2917
45.23 2918
43.89 2919
44.28 2920
47.04 2921
42.06 2922
42.44 2923
43.12 2924
47.96 2925
45.77 2926
48.01 2927
15.1 2928
42.41 2929
8.89 2930
49.16 2931
22.52 2932
4.50 2933
6.8 2934
21.2 2935
14.77 2936
52.85 2937
55.05 2938
18.46 2939
33.19 2940
15.66 2941
60.05 2942
3.20 2943
2.70 2944
57.25 2945
22.34 2946
37.0 2947
32.55 2948
14.87 2949
16.0 2950
21.57 2951
21.1 2952
21.68 2953
27.95 2954
42.54 2955
36.63 2956
49.18 2957
38.38 2958
62.25 2959
42.99 2960
41.9 2961
16.74 2962
22.81 2963
37.48 2964
35.49 2965
47.43 2966
38.41 2967
42.49 2968
42.16 2969
50.05 2970
23.14 2971
47.8 2972
49.17 2973
20.1 2974
43.48 2975
15.09 2976
8.51 2977
18.45 2978
22.5 2979
15.72 2980
48.66 2981
22.8 2982
56.35 2983
58.23 2984
54.75 2985
40.39 2986
33.08 2987
41.56 2988
17.09 2989
40.61 2990
41.57 2991
22.79 2992
22.46 2993
57.49 2994
38.55 2995
32.39 2996
30.15 2997
14.84 2998
13.40 2999
18.84 3000
23.03 3001
62.15 3002
65.35 3003
15.51 3004
21.29 3005
37.8 3006
42.01 3007
44.13 3008
43.27 3009
20.00 3010
44.22 3011
36.31 3012
40.5 3013
36.5 3014
47.91 3015
47.52 3016
33.23 3017
47.37 3018
41.83 3019
42.07 3020
21.33 3021
49.22 3022
32.35 3023
41.47 3024
28.97 3025
15.52 3026
43.84 3027
42.66 3028
42.62 3029
44.45 3030
48.43 3031
52.45 3032
27.44 3033
49.12 3034
15.96 3035
15.79 3036
16.27 3037
9.3 3038
51.15 3039
29.25 3040
60.5 3041
12.52 3042
22.7 3043
25.85 3044
40.16 3045
31.95 3046
55.88 3047
62.55 3048
60.9 3049
35.15 3050
20.44 3051
23.75 3052
18.95 3053
16.38 3054
56.0 3055
58.69 3056
22.14 3057
12.90 3058
22.63 3059
15.48 3060
22.96 3061
40.36 3062
37.3 3063
16.18 3064
17.26 3065
44.21 3066
45.12 3067
40.33 3068
44.04 3069
40.12 3070
38.0 3071
44.58 3072
16.17 3073
45.38 3074
38.92 3075
45.48 3076
48.27 3077
48.73 3078
43.82 3079
48.56 3080
33.55 3081
47.82 3082
18.15 3083
41.84 3084
42.04 3085
42.22 3086
43.96 3087
41.94 3088
42.05 3089
42.95 3090
18.82 3091
32.83 3092
65.45 3093
42.83 3094
17.0 3095
47.17 3096
8.34 3097
40.21 3098
7.0 3099
41.93 3100
44.23 3101
21.03 3102
8.64 3103
13.30 3104
17.92 3105
53.47 3106
52.15 3107
56.42 3108
53.64 3109
29.55 3110
66.25 3111
61.03 3112
15.26 3113
59.55 3114
21.24 3115
15.67 3116
35.48 3117
39.81 3118
41.46 3119
58.56 3120
55.26 3121
10.50 3122
61.5 3123
21.49 3124
17.95 3125
19.15 3126
22.68 3127
55.31 3128
16.87 3129
54.99 3130
22.54 3131
15.32 3132
13.20 3133
17.49 3134
14.92 3135
36.3 3136
38.05 3137
15.92 3138
44.5 3139
43.3 3140
34.0 3141
4.60 3142
48.31 3143
8.92 3144
47.74 3145
41.78 3146
42.64 3147
41.25 3148
46.67 3149
42.33 3150
45.67 3151
39.71 3152
43.94 3153
15.01 3154
49.47 3155
17.18 3156
50.51 3157
62.35 3158
8.4 3159
17.38 3160
17.27 3161
29.15 3162
32.67 3163
36.27 3164
38.3 3165
43.61 3166
17.87 3167
26.32 3168
63.55 3169
32.94 3170
45.18 3171
22.48 3172
23.5 3173
23.65 3174
15.47 3175
15.89 3176
14.96 3177
36.51 3178
49.6 3179
45.57 3180
39.03 3181
15.04 3182
45.0 3183
43.86 3184
48.08 3185
43.2 3186
48.24 3187
47.22 3188
49.52 3189
49.27 3190
47.68 3191
44.71 3192
22.78 3193
43.03 3194
42.02 3195
41.54 3196
41.98 3197
44.83 3198
8.23 3199
45.71 3200
55.0 3201
55.56 3202
38.85 3203
4.80 3204
48.6 3205
37.57 3206
44.14 3207
41.16 3208
45.35 3209
49.48 3210
16.37 3211
50.34 3212
18.26 3213
21.04 3214
8.19 3215
30.25 3216
62.22 3217
35.05 3218
35.24 3219
55.84 3220
38.57 3221
12.1 3222
43.26 3223
16.04 3224
21.62 3225
40.28 3226
18.07 3227
40.85 3228
63.35 3229
19.8 3230
61.02 3231
36.49 3232
33.42 3233
33.04 3234
19.79 3235
55.65 3236
33.14 3237
21.44 3238
21.88 3239
27.25 3240
21.38 3241
51.85 3242
22.84 3243
22.37 3244
37.34 3245
38.1 3246
43.23 3247
42.5 3248
43.13 3249
44.8 3250
44.76 3251
45.49 3252
36.34 3253
38.56 3254
36.2 3255
46.21 3256
36.58 3257
38.58 3258
42.73 3259
46.06 3260
39.22 3261
43.76 3262
41.4 3263
29.37 3264
45.3 3265
48.5 3266
36.0 3267
42.74 3268
41.69 3269
8.22 3270
16.14 3271
40.96 3272
52.66 3273
51.45 3274
28.05 3275
15.11 3276
50.4 3277
48.26 3278
50.42 3279
20.4 3280
8.1 3281
21.21 3282
15.98 3283
8.9 3284
21.22 3285
59.78 3286
64.35 3287
61.0 3288
40.51 3289
17.64 3290
39.5 3291
40.19 3292
36.37 3293
15.41 3294
18.18 3295
21.89 3296
61.48 3297
61.72 3298
58.4 3299
58.39 3300
18.5 3301
59.35 3302
61.87 3303
35.29 3304
16.36 3305
33.44 3306
21.41 3307
56.5 3308
58.85 3309
22.73 3310
21.96 3311
21.26 3312
39.45 3313
39.29 3314
41.81 3315
45.07 3316
44.67 3317
47.0 3318
47.89 3319
42.57 3320
47.77 3321
47.84 3322
46.96 3323
44.15 3324
43.87 3325
41.27 3326
42.98 3327
45.19 3328
43.55 3329
29.95 3330
45.34 3331
42.38 3332
37.39 3333
40.63 3334
27.07 3335
54.65 3336
46.02 3337
53.97 3338
44.52 3339
47.67 3340
29.11 3341
36.6 3342
47.4 3343
44.38 3344
50.48 3345
41.74 3346
42.94 3347
48.3 3348
33.53 3349
49.92 3350
51.43 3351
22.3 3352
17.68 3353
57.0 3354
27.15 3355
20.17 3356
15.94 3357
33.21 3358
36.74 3359
36.46 3360
18.24 3361
39.2 3362
37.62 3363
22.88 3364
22.43 3365
22.1 3366
25.65 3367
21.54 3368
20.62 3369
21.86 3370
55.75 3371
24.05 3372
15.6 3373
20.28 3374
37.63 3375
37.12 3376
49.95 3377
40.13 3378
42.32 3379
60.72 3380
46.43 3381
35.52 3382
46.8 3383
36.66 3384
47.39 3385
42.27 3386
35.8 3387
38.69 3388
45.81 3389
43.4 3390
41.48 3391
44.94 3392
44.69 3393
43.58 3394
48.79 3395
56.26 3396
5.80 3397
54.19 3398
49.0 3399
48.46 3400
44.99 3401
16.95 3402
14.71 3403
34.96 3404
15.5 3405
49.38 3406
48.76 3407
20.24 3408
24.26 3409
16.01 3410
65.0 3411
61.36 3412
36.7 3413
33.0 3414
35.31 3415
39.53 3416
33.01 3417
56.78 3418
61.66 3419
16.3 3420
21.5 3421
61.15 3422
27.98 3423
21.27 3424
54.68 3425
53.35 3426
23.06 3427
17.34 3428
11.00 3429
20.63 3430
22.03 3431
42.91 3432
36.79 3433
42.46 3434
40.2 3435
43.21 3436
39.34 3437
47.63 3438
47.38 3439
45.83 3440
47.33 3441
47.79 3442
27.78 3443
44.53 3444
47.08 3445
49.26 3446
50.5 3447
52.02 3448
55.15 3449
53.7 3450
48.41 3451
44.98 3452
15.81 3453
44.07 3454
45.5 3455
44.01 3456
21.83 3457
19.54 3458
21.01 3459
7.2 3460
47.64 3461
24.0 3462
6.40 3463
58.88 3464
53.05 3465
55.27 3466
25.05 3467
52.69 3468
27.96 3469
60.7 3470
19.74 3471
36.1 3472
10.90 3473
38.51 3474
61.4 3475
59.02 3476
60.39 3477
40.91 3478
23.31 3479
58.61 3480
36.8 3481
23.58 3482
39.57 3483
16.07 3484
19.57 3485
63.25 3486
27.51 3487
21.94 3488
36.88 3489
25.95 3490
28.08 3491
28.51 3492
83.33 3493
20.67 3494
17.47 3495
17.46 3496
14.20 3497
22.02 3498
59.04 3499
21.59 3500
22.9 3501
22.01 3502
49.63 3503
42.31 3504
37.07 3505
38.61 3506
37.83 3507
44.88 3508
41.66 3509
42.67 3510
38.44 3511
41.42 3512
40.27 3513
37.84 3514
31.55 3515
44.62 3516
45.61 3517
46.03 3518
47.72 3519
48.63 3520
47.48 3521
47.92 3522
43.53 3523
43.42 3524
23.07 3525
45.74 3526
40.3 3527
43.22 3528
33.46 3529
42.71 3530
27.81 3531
31.99 3532
59.09 3533
16.82 3534
44.96 3535
43.16 3536
46.56 3537
59.45 3538
37.81 3539
45.51 3540
48.8 3541
20.26 3542
15.58 3543
16.8 3544
25.51 3545
72.65 3546
52.46 3547
58.47 3548
54.13 3549
15.42 3550
30.45 3551
70.0 3552
34.91 3553
38.06 3554
60.1 3555
42.51 3556
41.52 3557
57.3 3558
42.48 3559
37.11 3560
37.4 3561
60.71 3562
26.25 3563
15.18 3564
27.55 3565
17.17 3566
59.5 3567
61.27 3568
30.85 3569
17.66 3570
32.92 3571
67.75 3572
23.43 3573
10.80 3574
82.35 3575
19.51 3576
21.69 3577
22.33 3578
21.51 3579
15.3 3580
22.4 3581
15.82 3582
27.75 3583
21.08 3584
37.17 3585
41.43 3586
38.19 3587
44.87 3588
43.7 3589
37.64 3590
38.28 3591
46.53 3592
37.02 3593
46.46 3594
35.59 3595
42.78 3596
47.32 3597
39.54 3598
47.93 3599
60.22 3600
47.26 3601
47.88 3602
44.46 3603
42.21 3604
42.34 3605
41.37 3606
40.95 3607
41.96 3608
33.03 3609
45.27 3610
53.66 3611
38.2 3612
43.9 3613
22.87 3614
37.77 3615
48.48 3616
32.27 3617
56.58 3618
31.65 3619
31.98 3620
47.51 3621
49.08 3622
8.77 3623
54.9 3624
53.49 3625
27.46 3626
58.13 3627
29.04 3628
56.34 3629
15.69 3630
66.15 3631
41.02 3632
38.48 3633
40.64 3634
18.13 3635
39.89 3636
20.38 3637
35.83 3638
17.14 3639
63.08 3640
60.19 3641
19.66 3642
35.44 3643
37.04 3644
60.98 3645
32.32 3646
20.51 3647
16.02 3648
14.82 3649
21.71 3650
15.8 3651
57.33 3652
21.99 3653
51.75 3654
6.50 3655
55.77 3656
22.38 3657
13.50 3658
28.19 3659
20.94 3660
6.20 3661
56.66 3662
20.7 3663
20.57 3664
18.37 3665
37.23 3666
39.21 3667
38.11 3668
37.71 3669
37.96 3670
60.26 3671
40.56 3672
39.72 3673
42.18 3674
44.73 3675
44.49 3676
44.17 3677
38.15 3678
46.41 3679
35.79 3680
46.01 3681
48.12 3682
47.78 3683
37.9 3684
57.53 3685
37.66 3686
44.47 3687
43.92 3688
27.41 3689
39.32 3690
12.26 3691
42.43 3692
36.42 3693
42.59 3694
44.79 3695
49.4 3696
29.75 3697
47.14 3698
45.58 3699
48.88 3700
48.39 3701
15.62 3702
13.90 3703
16.71 3704
60.3 3705
55.51 3706
54.89 3707
28.84 3708
30.05 3709
56.23 3710
61.54 3711
38.01 3712
55.94 3713
9.04 3714
36.22 3715
38.46 3716
35.9 3717
38.45 3718
33.63 3719
41.2 3720
40.79 3721
42.58 3722
39.87 3723
36.91 3724
36.23 3725
31.71 3726
56.16 3727
22.6 3728
7.1 3729
55.76 3730
27.91 3731
60.12 3732
23.16 3733
62.74 3734
33.1 3735
22.28 3736
12.80 3737
23.71 3738
23.24 3739
33.17 3740
57.42 3741
16.2 3742
22.2 3743
27.79 3744
11.40 3745
15.93 3746
14.90 3747
18.81 3748
20.19 3749
19.6 3750
23.29 3751
37.72 3752
37.76 3753
36.96 3754
44.74 3755
40.18 3756
40.57 3757
43.6 3758
39.43 3759
44.61 3760
45.33 3761
45.14 3762
44.81 3763
48.03 3764
47.01 3765
42.93 3766
40.62 3767
44.77 3768
39.62 3769
54.08 3770
27.35 3771
54.22 3772
29.45 3773
25.0 3774
48.4 3775
46.14 3776
36.62 3777
44.6 3778
43.74 3779
60.32 3780
37.18 3781
49.36 3782
51.95 3783
50.87 3784
51.36 3785
48.09 3786
30.95 3787
49.61 3788
8.6 3789
57.8 3790
31.05 3791
61.62 3792
29.08 3793
38.88 3794
27.63 3795
40.02 3796
61.78 3797
18.08 3798
40.43 3799
60.06 3800
47.16 3801
28.13 3802
21.18 3803
59.88 3804
51.19 3805
64.15 3806
33.02 3807
16.6 3808
64.45 3809
63.95 3810
58.28 3811
65.55 3812
59.59 3813
33.62 3814
20.84 3815
16.76 3816
58.83 3817
22.29 3818
15.00 3819
94.47 3820
16.09 3821
23.36 3822
21.78 3823
8.81 3824
12.27 3825
16.26 3826
57.21 3827
23.09 3828
16.32 3829
22.31 3830
29.21 3831
23.98 3832
55.66 3833
14.54 3834
27.56 3835
22.42 3836
18.38 3837
13.70 3838
13.80 3839
27.66 3840
37.36 3841
38.17 3842
39.37 3843
43.77 3844
43.18 3845
43.0 3846
40.72 3847
45.13 3848
43.67 3849
16.21 3850
42.88 3851
45.09 3852
46.44 3853
37.53 3854
36.67 3855
46.58 3856
36.89 3857
47.06 3858
48.28 3859
37.7 3860
45.63 3861
46.61 3862
42.68 3863
41.59 3864
43.31 3865
43.47 3866
48.99 3867
27.05 3868
71.95 3869
42.52 3870
52.94 3871
48.42 3872
23.47 3873
47.81 3874
49.02 3875
45.66 3876
35.13 3877
41.7 3878
42.87 3879
43.78 3880
44.63 3881
33.4 3882
49.78 3883
35.61 3884
19.7 3885
27.52 3886
51.3 3887
20.50 3888
17.48 3889
10.30 3890
50.64 3891
15.59 3892
61.61 3893
60.02 3894
62.75 3895
17.36 3896
61.57 3897
59.84 3898
58.81 3899
19.82 3900
29.48 3901
33.28 3902
28.62 3903
29.82 3904
29.51 3905
36.38 3906
36.06 3907
23.46 3908
32.52 3909
39.74 3910
36.54 3911
53.54 3912
62.17 3913
16.19 3914
56.1 3915
40.98 3916
15.12 3917
20.43 3918
38.24 3919
15.74 3920
41.29 3921
57.39 3922
58.12 3923
72.05 3924
62.85 3925
31.9 3926
22.69 3927
20.27 3928
8.13 3929
21.53 3930
26.74 3931
48.49 3932
21.84 3933
20.04 3934
17.12 3935
22.11 3936
56.51 3937
57.58 3938
61.8 3939
19.71 3940
27.54 3941
17.28 3942
16.77 3943
55.79 3944
21.98 3945
37.01 3946
37.91 3947
38.21 3948
15.99 3949
45.04 3950
44.4 3951
43.46 3952
47.11 3953
38.33 3954
45.29 3955
45.28 3956
48.32 3957
35.02 3958
46.51 3959
45.99 3960
47.34 3961
35.1 3962
42.42 3963
18.79 3964
41.53 3965
42.82 3966
48.19 3967
49.57 3968
27.84 3969
55.17 3970
32.41 3971
49.56 3972
53.95 3973
28.75 3974
24.16 3975
53.25 3976
52.0 3977
36.64 3978
48.23 3979
49.31 3980
35.38 3981
39.97 3982
37.79 3983
6.00 3984
42.1 3985
46.31 3986
37.22 3987
40.34 3988
31.0 3989
45.4 3990
45.21 3991
48.47 3992
27.53 3993
51.1 3994
45.42 3995
21.17 3996
32.73 3997
56.36 3998
16.5 3999
23.77 4000
49.5 4001
49.51 4002
52.35 4003
53.98 4004
54.71 4005
40.06 4006
60.78 4007
58.41 4008
68.75 4009
58.3 4010
59.82 4011
34.88 4012
38.91 4013
61.91 4014
35.26 4015
38.31 4016
55.06 4017
38.14 4018
40.38 4019
22.49 4020
16.11 4021
35.54 4022
57.65 4023
60.8 4024
59.1 4025
39.18 4026
15.64 4027
61.7 4028
58.51 4029
22.72 4030
55.61 4031
8.46 4032
17.03 4033
77.94 4034
19.0 4035
29.14 4036
31.25 4037
21.46 4038
56.86 4039
83.65 4040
17.77 4041
21.07 4042
18.29 4043
16.23 4044
19.98 4045
37.42 4046
37.21 4047
39.0 4048
37.88 4049
39.63 4050
40.29 4051
40.58 4052
41.12 4053
45.2 4054
32.99 4055
44.41 4056
41.03 4057
36.43 4058
47.13 4059
28.89 4060
47.47 4061
47.71 4062
45.84 4063
42.9 4064
39.08 4065
41.19 4066
39.69 4067
44.57 4068
38.59 4069
15.53 4070
54.32 4071
27.33 4072
26.67 4073
20.01 4074
54.63 4075
18.6 4076
36.26 4077
48.74 4078
55.18 4079
39.02 4080
43.97 4081
6.60 4082
23.27 4083
16.83 4084
49.37 4085
33.68 4086
32.17 4087
49.1 4088
48.34 4089
15.57 4090
50.6 4091
35.12 4092
46.81 4093
45.1 4094
18.02 4095
56.38 4096
57.03 4097
22.39 4098
17.37 4099
52.29 4100
51.46 4101
57.08 4102
28.86 4103
35.63 4104
34.89 4105
38.84 4106
37.56 4107
40.59 4108
37.47 4109
39.96 4110
60.47 4111
40.49 4112
56.65 4113
20.16 4114
17.72 4115
16.81 4116
39.79 4117
37.13 4118
61.2 4119
60.28 4120
17.73 4121
21.52 4122
17.89 4123
23.34 4124
32.77 4125
23.68 4126
20.13 4127
21.74 4128
17.53 4129
65.25 4130
75.0 4131
22.06 4132
28.54 4133
77.68 4134
95.47 4135
56.07 4136
56.12 4137
37.03 4138
36.81 4139
16.44 4140
26.62 4141
15.71 4142
58.62 4143
16.08 4144
23.2 4145
17.8 4146
24.75 4147
19.90 4148
55.95 4149
56.27 4150
26.81 4151
19.11 4152
19.81 4153
27.21 4154
22.12 4155
18.01 4156
18.99 4157
21.09 4158
20.8 4159
38.78 4160
47.03 4161
39.83 4162
42.84 4163
39.7 4164
45.11 4165
45.9 4166
46.33 4167
68.15 4168
62.38 4169
37.41 4170
47.1 4171
45.93 4172
48.04 4173
47.86 4174
36.4 4175
36.78 4176
47.21 4177
35.86 4178
27.36 4179
19.47 4180
41.73 4181
45.87 4182
42.63 4183
44.03 4184
18.33 4185
48.81 4186
45.03 4187
54.14 4188
17.15 4189
27.73 4190
5.00 4191
50.86 4192
23.61 4193
57.04 4194
46.7 4195
54.59 4196
35.39 4197
48.54 4198
27.47 4199
46.79 4200
39.59 4201
46.24 4202
45.43 4203
33.59 4204
25.78 4205
40.24 4206
40.81 4207
42.08 4208
19.77 4209
48.68 4210
49.34 4211
49.29 4212
20.58 4213
51.24 4214
16.13 4215
54.93 4216
51.48 4217
47.61 4218
18.34 4219
63.14 4220
53.13 4221
57.4 4222
54.83 4223
58.7 4224
28.01 4225
36.87 4226
63.28 4227
36.04 4228
32.9 4229
64.85 4230
31.78 4231
61.97 4232
38.76 4233
61.82 4234
38.71 4235
39.17 4236
40.26 4237
38.83 4238
37.74 4239
61.9 4240
24.38 4241
39.47 4242
40.69 4243
39.25 4244
40.25 4245
53.33 4246
39.67 4247
39.46 4248
56.02 4249
16.96 4250
20.98 4251
82.44 4252
60.2 4253
38.97 4254
37.33 4255
19.94 4256
32.25 4257
10.20 4258
16.51 4259
17.3 4260
26.05 4261
22.61 4262
29.01 4263
55.03 4264
94.83 4265
22.47 4266
19.99 4267
54.78 4268
54.62 4269
16.1 4270
20.99 4271
20.21 4272
55.48 4273
23.4 4274
11.90 4275
21.11 4276
23.33 4277
23.81 4278
26.85 4279
21.28 4280
39.33 4281
36.83 4282
48.22 4283
41.34 4284
38.79 4285
43.71 4286
42.26 4287
44.42 4288
39.19 4289
39.9 4290
45.32 4291
35.92 4292
44.72 4293
44.97 4294
46.72 4295
36.82 4296
46.54 4297
50.31 4298
42.23 4299
46.6 4300
59.58 4301
41.0 4302
44.78 4303
40.4 4304
49.21 4305
49.19 4306
42.69 4307
55.41 4308
55.13 4309
28.93 4310
52.72 4311
52.38 4312
28.0 4313
27.32 4314
19.1 4315
35.08 4316
34.67 4317
37.73 4318
46.82 4319
49.33 4320
48.82 4321
13.60 4322
27.24 4323
16.34 4324
27.92 4325
43.64 4326
40.08 4327
44.7 4328
48.11 4329
50.78 4330
52.95 4331
18.27 4332
53.19 4333
51.23 4334
51.06 4335
28.45 4336
50.52 4337
47.94 4338
49.04 4339
17.93 4340
6.70 4341
58.73 4342
54.74 4343
27.72 4344
59.3 4345
65.44 4346
31.58 4347
33.3 4348
34.7 4349
81.84 4350
35.5 4351
58.9 4352
34.41 4353
54.07 4354
37.58 4355
39.16 4356
55.67 4357
60.6 4358
36.98 4359
27.01 4360
58.87 4361
58.76 4362
37.93 4363
35.62 4364
24.14 4365
17.52 4366
16.78 4367
40.71 4368
58.92 4369
29.23 4370
56.54 4371
62.64 4372
78.04 4373
81.49 4374
59.56 4375
58.98 4376
33.43 4377
29.27 4378
58.17 4379
54.8 4380
31.45 4381
25.71 4382
58.67 4383
41.3 4384
33.49 4385
24.82 4386
65.05 4387
53.5 4388
17.86 4389
22.32 4390
16.92 4391
20.12 4392
54.76 4393
82.72 4394
27.48 4395
24.35 4396
21.8 4397
21.23 4398
26.53 4399
39.58 4400
56.82 4401
45.31 4402
49.13 4403
38.47 4404
40.88 4405
38.67 4406
40.14 4407
42.2 4408
44.33 4409
38.54 4410
39.91 4411
37.68 4412
47.97 4413
46.74 4414
46.1 4415
48.1 4416
39.44 4417
46.26 4418
39.26 4419
39.98 4420
43.66 4421
82.91 4422
50.73 4423
55.43 4424
20.08 4425
53.44 4426
52.8 4427
53.9 4428
50.62 4429
35.99 4430
50.54 4431
39.48 4432
46.78 4433
28.16 4434
43.5 4435
43.04 4436
35.37 4437
66.75 4438
49.72 4439
60.59 4440
49.62 4441
32.91 4442
32.54 4443
51.0 4444
4.70 4445
27.97 4446
18.23 4447
19.67 4448
58.59 4449
50.33 4450
17.06 4451
50.12 4452
59.08 4453
55.71 4454
59.47 4455
28.14 4456
61.73 4457
28.76 4458
67.97 4459
17.16 4460
36.36 4461
59.26 4462
38.49 4463
14.00 4464
36.61 4465
36.94 4466
61.1 4467
38.07 4468
61.44 4469
39.27 4470
64.25 4471
20.81 4472
36.59 4473
20.18 4474
39.66 4475
40.97 4476
39.06 4477
38.96 4478
40.53 4479
61.32 4480
5.30 4481
69.15 4482
23.0 4483
67.39 4484
55.29 4485
20.23 4486
41.26 4487
28.04 4488
34.8 4489
32.26 4490
67.65 4491
19.52 4492
50.83 4493
82.26 4494
23.87 4495
22.51 4496
26.79 4497
55.21 4498
25.64 4499
23.04 4500
58.57 4501
19.59 4502
58.09 4503
27.11 4504
54.82 4505
59.19 4506
29.63 4507
18.73 4508
16.03 4509
17.81 4510
17.59 4511
16.97 4512
14.30 4513
38.5 4514
38.02 4515
47.6 4516
46.71 4517
39.56 4518
44.91 4519
43.52 4520
44.84 4521
36.68 4522
45.79 4523
46.94 4524
47.09 4525
38.34 4526
34.86 4527
44.27 4528
45.36 4529
39.92 4530
55.22 4531
54.5 4532
32.85 4533
55.08 4534
56.99 4535
28.53 4536
54.79 4537
49.64 4538
53.65 4539
51.97 4540
33.47 4541
51.32 4542
46.83 4543
25.97 4544
36.99 4545
46.48 4546
48.53 4547
46.57 4548
44.2 4549
49.01 4550
52.58 4551
23.59 4552
51.38 4553
15.91 4554
33.37 4555
16.24 4556
50.7 4557
18.48 4558
47.31 4559
52.08 4560
18.22 4561
58.1 4562
55.33 4563
59.57 4564
28.27 4565
33.87 4566
59.39 4567
59.0 4568
28.23 4569
64.23 4570
33.41 4571
64.08 4572
29.65 4573
33.86 4574
32.88 4575
57.69 4576
66.0 4577
66.05 4578
39.28 4579
61.64 4580
38.99 4581
45.62 4582
15.86 4583
21.13 4584
43.1 4585
57.37 4586
58.82 4587
25.02 4588
61.34 4589
58.03 4590
58.68 4591
60.56 4592
41.14 4593
41.63 4594
17.7 4595
57.15 4596
20.72 4597
67.31 4598
67.45 4599
63.3 4600
58.44 4601
33.2 4602
63.0 4603
12.20 4604
60.4 4605
59.03 4606
40.74 4607
55.97 4608
34.5 4609
28.02 4610
26.35 4611
33.58 4612
23.21 4613
32.98 4614
20.6 4615
11.80 4616
19.4 4617
21.91 4618
21.58 4619
23.37 4620
18.7 4621
58.15 4622
17.91 4623
32.96 4624
18.87 4625
57.43 4626
25.8 4627
21.76 4628
59.92 4629
17.74 4630
20.61 4631
27.28 4632
26.42 4633
23.99 4634
28.38 4635
16.62 4636
56.43 4637
23.95 4638
67.56 4639
48.51 4640
37.51 4641
46.97 4642
39.8 4643
44.1 4644
41.41 4645
38.98 4646
39.4 4647
43.51 4648
45.8 4649
36.19 4650
49.3 4651
46.84 4652
46.89 4653
46.3 4654
46.38 4655
46.4 4656
48.06 4657
63.09 4658
51.37 4659
48.29 4660
45.64 4661
46.16 4662
45.17 4663
34.32 4664
53.37 4665
55.37 4666
53.01 4667
51.82 4668
54.48 4669
34.78 4670
44.64 4671
50.98 4672
45.98 4673
47.98 4674
35.14 4675
49.81 4676
36.57 4677
45.54 4678
46.68 4679
47.02 4680
45.72 4681
46.9 4682
42.89 4683
40.87 4684
40.83 4685
5.50 4686
43.36 4687
59.2 4688
47.24 4689
37.2 4690
34.6 4691
19.17 4692
48.89 4693
48.96 4694
49.41 4695
48.18 4696
16.57 4697
51.83 4698
28.68 4699
29.38 4700
23.51 4701
47.76 4702
30.16 4703
18.16 4704
17.04 4705
20.34 4706
49.97 4707
17.83 4708
49.58 4709
20.86 4710
15.9 4711
58.79 4712
56.29 4713
56.32 4714
51.55 4715
54.98 4716
39.42 4717
35.76 4718
31.8 4719
29.44 4720
28.99 4721
34.29 4722
33.57 4723
66.61 4724
34.1 4725
36.69 4726
32.29 4727
61.71 4728
39.86 4729
24.65 4730
58.27 4731
40.46 4732
20.89 4733
40.23 4734
37.43 4735
60.53 4736
68.25 4737
16.68 4738
40.44 4739
58.66 4740
33.8 4741
12.50 4742
27.17 4743
26.76 4744
61.83 4745
70.55 4746
56.4 4747
60.99 4748
33.51 4749
56.68 4750
56.39 4751
27.8 4752
19.63 4753
17.82 4754
16.58 4755
23.22 4756
23.69 4757
20.68 4758
58.01 4759
75.05 4760
57.83 4761
55.36 4762
65.95 4763
20.11 4764
58.26 4765
62.65 4766
28.73 4767
60.74 4768
22.13 4769
22.07 4770
72.24 4771
95.44 4772
12.70 4773
23.42 4774
19.56 4775
80.37 4776
59.21 4777
11.50 4778
14.10 4779
26.45 4780
20.96 4781
12.60 4782
34.13 4783
35.03 4784
22.44 4785
35.36 4786
35.56 4787
39.88 4788
17.08 4789
34.66 4790
46.2 4791
23.48 4792
46.29 4793
35.06 4794
46.92 4795
37.24 4796
48.93 4797
36.33 4798
54.7 4799
36.21 4800
38.8 4801
33.79 4802
42.79 4803
6.30 4804
39.84 4805
42.72 4806
43.38 4807
45.59 4808
51.47 4809
30.88 4810
52.05 4811
56.6 4812
49.09 4813
50.21 4814
15.73 4815
50.06 4816
12.00 4817
36.76 4818
34.39 4819
49.84 4820
40.7 4821
43.8 4822
46.49 4823
63.33 4824
47.73 4825
48.58 4826
16.49 4827
34.33 4828
48.36 4829
49.46 4830
25.39 4831
52.51 4832
56.2 4833
51.18 4834
50.8 4835
27.93 4836
36.02 4837
22.19 4838
9.70 4839
17.41 4840
50.28 4841
17.63 4842
48.17 4843
72.39 4844
57.76 4845
54.46 4846
58.29 4847
53.86 4848
52.17 4849
16.72 4850
27.67 4851
59.9 4852
55.92 4853
60.82 4854
36.13 4855
35.32 4856
34.97 4857
58.02 4858
32.86 4859
67.15 4860
61.52 4861
34.49 4862
39.31 4863
38.23 4864
60.41 4865
24.97 4866
63.02 4867
59.91 4868
39.1 4869
19.39 4870
40.54 4871
65.42 4872
60.91 4873
61.31 4874
60.48 4875
19.3 4876
59.69 4877
27.6 4878
56.3 4879
16.29 4880
19.64 4881
17.4 4882
64.32 4883
61.19 4884
19.18 4885
21.79 4886
60.01 4887
61.01 4888
16.52 4889
34.42 4890
55.1 4891
32.82 4892
17.88 4893
18.59 4894
94.78 4895
19.24 4896
25.67 4897
19.43 4898
81.32 4899
21.72 4900
67.05 4901
77.53 4902
77.76 4903
54.69 4904
17.76 4905
54.94 4906
15.97 4907
23.01 4908
94.63 4909
16.88 4910
20.06 4911
25.84 4912
29.36 4913
18.62 4914
72.54 4915
16.48 4916
20.32 4917
83.24 4918
46.73 4919
34.53 4920
50.41 4921
38.66 4922
39.41 4923
40.8 4924
15.68 4925
45.06 4926
45.78 4927
46.17 4928
34.98 4929
32.61 4930
27.5 4931
20.14 4932
37.99 4933
48.20 4934
11.60 4935
41.24 4936
49.11 4937
54.66 4938
55.58 4939
53.0 4940
53.94 4941
52.61 4942
52.24 4943
52.19 4944
17.1 4945
49.32 4946
45.02 4947
44.56 4948
46.37 4949
26.48 4950
45.73 4951
16.99 4952
34.02 4953
65.82 4954
32.81 4955
53.16 4956
29.53 4957
50.11 4958
53.02 4959
29.84 4960
51.9 4961
51.81 4962
50.92 4963
29.57 4964
26.27 4965
50.53 4966
26.94 4967
23.62 4968
53.23 4969
60.68 4970
52.59 4971
52.63 4972
53.56 4973
22.21 4974
54.6 4975
59.87 4976
32.68 4977
57.94 4978
57.62 4979
60.67 4980
40.67 4981
29.96 4982
26.02 4983
34.62 4984
59.98 4985
34.58 4986
39.24 4987
25.15 4988
66.35 4989
60.54 4990
60.36 4991
20.74 4992
55.55 4993
61.38 4994
71.45 4995
27.14 4996
35.04 4997
40.68 4998
56.88 4999
63.38 5000
22.36 5001
35.89 5002
17.43 5003
17.11 5004
41.1 5005
61.88 5006
51.04 5007
54.57 5008
61.12 5009
21.93 5010
80.75 5011
22.16 5012
15.19 5013
63.82 5014
66.17 5015
29.06 5016
61.33 5017
57.01 5018
23.38 5019
56.19 5020
20.87 5021
32.44 5022
44.26 5023
31.35 5024
31.5 5025
94.75 5026
22.08 5027
28.94 5028
21.97 5029
5.90 5030
21.12 5031
17.98 5032
65.15 5033
71.91 5034
77.78 5035
28.25 5036
56.57 5037
60.44 5038
19.78 5039
65.08 5040
60.13 5041
9.90 5042
27.65 5043
16.43 5044
68.35 5045
16.46 5046
23.85 5047
81.27 5048
27.68 5049
82.86 5050
59.07 5051
21.9 5052
60.97 5053
29.64 5054
38.36 5055
37.08 5056
36.72 5057
38.4 5058
37.19 5059
36.56 5060
37.98 5061
49.53 5062
37.31 5063
47.69 5064
39.13 5065
38.08 5066
37.37 5067
40.17 5068
27.31 5069
20.69 5070
49.73 5071
47.12 5072
42.4 5073
39.99 5074
46.52 5075
34.68 5076
49.99 5077
27.88 5078
23.3 5079
49.82 5080
50.46 5081
50.88 5082
50.89 5083
16.42 5084
50.09 5085
31.2 5086
40.42 5087
45.69 5088
19.13 5089
43.91 5090
33.98 5091
49.06 5092
65.67 5093
54.21 5094
24.78 5095
29.77 5096
51.2 5097
50.58 5098
17.96 5099
23.53 5100
16.22 5101
57.56 5102
16.4 5103
52.93 5104
63.26 5105
73.05 5106
56.8 5107
55.54 5108
59.31 5109
39.76 5110
56.13 5111
57.9 5112
28.98 5113
34.37 5114
57.78 5115
60.62 5116
64.0 5117
62.01 5118
32.15 5119
32.11 5120
35.22 5121
58.54 5122
32.4 5123
35.6 5124
35.47 5125
35.58 5126
67.55 5127
66.89 5128
55.34 5129
37.44 5130
38.81 5131
20.47 5132
73.06 5133
17.55 5134
43.32 5135
60.69 5136
41.08 5137
63.16 5138
40.86 5139
17.51 5140
17.21 5141
61.29 5142
38.04 5143
16.12 5144
58.91 5145
17.33 5146
54.03 5147
51.69 5148
59.23 5149
56.08 5150
60.73 5151
57.64 5152
62.07 5153
31.03 5154
34.63 5155
15.88 5156
62.9 5157
58.52 5158
59.46 5159
60.81 5160
26.12 5161
61.56 5162
30.35 5163
32.49 5164
60.21 5165
61.23 5166
57.18 5167
33.52 5168
16.9 5169
62.43 5170
18.28 5171
23.1 5172
23.17 5173
18.11 5174
21.61 5175
94.77 5176
84.06 5177
80.83 5178
81.99 5179
55.12 5180
26.04 5181
19.61 5182
20.22 5183
25.87 5184
17.31 5185
57.1 5186
57.51 5187
59.8 5188
57.73 5189
11.10 5190
80.91 5191
56.04 5192
18.44 5193
66.85 5194
60.93 5195
17.22 5196
18.2 5197
22.17 5198
73.85 5199
85.24 5200
26.39 5201
16.73 5202
23.94 5203
26.17 5204
24.11 5205
20.53 5206
42.76 5207
37.54 5208
34.74 5209
35.19 5210
36.52 5211
44.16 5212
33.54 5213
42.8 5214
35.57 5215
44.86 5216
33.22 5217
47.27 5218
48.72 5219
49.42 5220
36.09 5221
33.31 5222
36.18 5223
28.46 5224
26.92 5225
25.12 5226
27.59 5227
41.97 5228
51.72 5229
30.23 5230
5.70 5231
54.0 5232
54.37 5233
50.56 5234
17.9 5235
51.91 5236
29.35 5237
53.8 5238
53.74 5239
54.4 5240
52.54 5241
53.38 5242
48.98 5243
50.61 5244
35.28 5245
5.10 5246
49.54 5247
46.04 5248
34.07 5249
49.14 5250
17.56 5251
51.28 5252
49.79 5253
26.01 5254
29.79 5255
51.78 5256
58.78 5257
51.5 5258
29.24 5259
27.39 5260
49.96 5261
18.66 5262
54.24 5263
58.6 5264
16.31 5265
28.5 5266
14.40 5267
22.62 5268
54.02 5269
51.64 5270
70.45 5271
63.64 5272
27.76 5273
77.65 5274
62.93 5275
29.03 5276
29.49 5277
29.4 5278
63.12 5279
26.22 5280
37.46 5281
64.65 5282
60.92 5283
35.11 5284
57.48 5285
35.27 5286
33.11 5287
63.13 5288
55.68 5289
42.77 5290
61.58 5291
62.16 5292
35.34 5293
58.37 5294
56.14 5295
27.12 5296
56.94 5297
59.18 5298
56.7 5299
58.96 5300
57.28 5301
54.05 5302
22.04 5303
59.7 5304
57.38 5305
20.92 5306
59.38 5307
60.24 5308
62.91 5309
62.42 5310
32.53 5311
59.44 5312
32.58 5313
32.84 5314
31.76 5315
21.48 5316
33.13 5317
66.83 5318
33.38 5319
83.51 5320
23.89 5321
95.22 5322
81.81 5323
17.54 5324
26.16 5325
75.02 5326
17.01 5327
0.28. 5328
24.04 5329
69.65 5330
21.02 5331
60.42 5332
23.18 5333
22.18 5334
18.04 5335
60.87 5336
57.97 5337
94.86 5338
84.55 5339
20.03 5340
25.66 5341
16.63 5342
17.94 5343
73.65 5344
83.37 5345
16.84 5346
28.55 5347
23.12 5348
24.55 5349
23.9 5350
17.62 5351
19.72 5352
18.8 5353
16.41 5354
62.24 5355
37.49 5356
57.16 5357
41.21 5358
48.71 5359
37.27 5360
38.43 5361
18.56 5362
40.77 5363
44.9 5364
44.89 5365
39.04 5366
54.77 5367
46.5 5368
45.53 5369
29.18 5370
33.7 5371
54.17 5372
56.09 5373
19.42 5374
21.14 5375
54.43 5376
51.77 5377
50.39 5378
48.78 5379
8.5 5380
41.28 5381
43.79 5382
61.26 5383
45.37 5384
46.27 5385
46.32 5386
35.43 5387
34.82 5388
48.97 5389
49.69 5390
28.63 5391
23.56 5392
49.89 5393
53.83 5394
53.84 5395
53.08 5396
52.13 5397
50.57 5398
17.5 5399
20.91 5400
19.2 5401
50.76 5402
52.79 5403
58.31 5404
18.41 5405
25.28 5406
58.72 5407
27.83 5408
27.42 5409
28.65 5410
60.94 5411
72.32 5412
31.96 5413
34.3 5414
26.71 5415
19.69 5416
33.12 5417
58.21 5418
35.2 5419
33.27 5420
25.88 5421
32.8 5422
38.52 5423
62.3 5424
39.3 5425
57.71 5426
58.97 5427
39.82 5428
41.01 5429
82.56 5430
54.54 5431
55.02 5432
57.12 5433
53.29 5434
24.08 5435
26.0 5436
61.81 5437
65.79 5438
62.4 5439
31.77 5440
59.01 5441
9.80 5442
32.37 5443
55.93 5444
70.75 5445
26.68 5446
33.56 5447
4.90 5448
34.11 5449
18.83 5450
28.79 5451
59.93 5452
16.79 5453
17.71 5454
18.61 5455
94.93 5456
80.0 5457
26.21 5458
19.23 5459
63.81 5460
54.84 5461
77.82 5462
53.61 5463
82.05 5464
81.71 5465
55.19 5466
59.68 5467
16.86 5468
57.41 5469
17.07 5470
58.18 5471
57.19 5472
29.42 5473
26.29 5474
60.04 5475
65.56 5476
17.19 5477
24.85 5478
81.25 5479
94.94 5480
83.03 5481
83.76 5482
20.09 5483
61.53 5484
32.36 5485
27.04 5486
24.45 5487
37.87 5488
40.99 5489
64.37 5490
39.52 5491
40.94 5492
43.93 5493
44.82 5494
35.87 5495
46.87 5496
46.86 5497
23.26 5498
38.94 5499
46.11 5500
45.86 5501
42.28 5502
37.97 5503
50.47 5504
23.41 5505
55.14 5506
52.39 5507
54.29 5508
32.1 5509
35.91 5510
33.89 5511
20.41 5512
40.92 5513
18.97 5514
40.11 5515
31.41 5516
50.22 5517
49.83 5518
46.28 5519
51.03 5520
50.59 5521
50.96 5522
51.08 5523
50.26 5524
43.49 5525
20.40 5526
49.77 5527
52.4 5528
18.12 5529
58.46 5530
53.99 5531
54.91 5532
50.24 5533
28.39 5534
65.87 5535
73.35 5536
56.89 5537
33.61 5538
55.38 5539
35.66 5540
36.11 5541
35.09 5542
63.76 5543
58.43 5544
36.48 5545
33.78 5546
34.77 5547
35.46 5548
35.53 5549
54.3 5550
36.16 5551
38.03 5552
62.21 5553
62.88 5554
64.56 5555
36.86 5556
57.09 5557
62.1 5558
59.64 5559
66.55 5560
62.82 5561
39.68 5562
61.96 5563
60.83 5564
59.17 5565
23.6 5566
53.09 5567
56.31 5568
62.58 5569
56.49 5570
57.02 5571
21.60 5572
58.89 5573
69.25 5574
70.32 5575
59.96 5576
60.27 5577
60.18 5578
59.06 5579
59.22 5580
56.37 5581
29.76 5582
54.11 5583
32.79 5584
34.2 5585
23.52 5586
33.66 5587
37.29 5588
20.37 5589
61.86 5590
28.85 5591
0.46. 5592
26.61 5593
57.07 5594
95.57 5595
8.3 5596
81.51 5597
19.03 5598
16.64 5599
21.63 5600
20.77 5601
10.10 5602
18.86 5603
54.73 5604
73.03 5605
19.92 5606
40.03 5607
59.6 5608
18.14 5609
95.13 5610
5.60 5611
31.06 5612
17.44 5613
19.34 5614
18.32 5615
19.31 5616
72.35 5617
94.53 5618
26.99 5619
80.81 5620
83.85 5621
25.96 5622
80.69 5623
20.71 5624
19.37 5625
28.48 5626
17.6 5627
27.62 5628
23.97 5629
36.12 5630
56.47 5631
19.53 5632
34.84 5633
60.57 5634
34.92 5635
40.78 5636
41.22 5637
39.01 5638
38.77 5639
32.28 5640
45.97 5641
24.42 5642
51.57 5643
32.03 5644
36.28 5645
35.07 5646
37.38 5647
49.88 5648
36.77 5649
48.21 5650
44.06 5651
45.89 5652
32.02 5653
18.54 5654
25.75 5655
52.77 5656
52.56 5657
46.22 5658
50.81 5659
24.48 5660
35.18 5661
22.09 5662
45.6 5663
39.12 5664
62.46 5665
65.66 5666
51.87 5667
49.91 5668
49.66 5669
48.64 5670
48.87 5671
52.14 5672
49.2 5673
28.66 5674
27.08 5675
48.86 5676
49.86 5677
21.30 5678
19.5 5679
45.96 5680
50.40 5681
52.11 5682
51.51 5683
52.09 5684
26.49 5685
17.2 5686
57.82 5687
51.42 5688
53.78 5689
54.67 5690
51.8 5691
27.4 5692
20.82 5693
28.12 5694
72.13 5695
29.85 5696
29.81 5697
35.17 5698
56.9 5699
62.98 5700
62.2 5701
62.67 5702
66.23 5703
19.91 5704
58.08 5705
59.12 5706
18.31 5707
54.31 5708
33.77 5709
57.47 5710
18.19 5711
64.1 5712
60.16 5713
63.62 5714
14.70 5715
84.07 5716
68.17 5717
33.6 5718
25.48 5719
55.98 5720
61.51 5721
61.11 5722
56.61 5723
33.64 5724
32.47 5725
59.97 5726
32.31 5727
31.43 5728
17.02 5729
32.93 5730
33.92 5731
67.36 5732
35.51 5733
82.65 5734
66.01 5735
55.3 5736
20.59 5737
19.73 5738
95.02 5739
54.01 5740
80.31 5741
25.08 5742
20.97 5743
32.59 5744
20.9 5745
83.72 5746
18.67 5747
10.00 5748
19.96 5749
31.91 5750
78.32 5751
28.64 5752
55.49 5753
74.16 5754
77.83 5755
45.88 5756
38.42 5757
56.22 5758
59.41 5759
66.62 5760
28.6 5761
58.19 5762
29.83 5763
28.92 5764
21.77 5765
25.81 5766
61.94 5767
65.22 5768
19.88 5769
21.66 5770
23.73 5771
16.33 5772
30.75 5773
18.53 5774
59.67 5775
19.87 5776
26.15 5777
27.43 5778
21.19 5779
23.13 5780
46.07 5781
38.16 5782
38.73 5783
61.76 5784
37.89 5785
34.43 5786
41.32 5787
45.7 5788
39.61 5789
45.56 5790
46.08 5791
52.86 5792
42.30 5793
45.16 5794
41.39 5795
41.6 5796
42.85 5797
48.77 5798
81.65 5799
67.23 5800
54.92 5801
71.15 5802
57.13 5803
56.11 5804
51.6 5805
55.46 5806
51.73 5807
28.26 5808
53.59 5809
52.64 5810
19.21 5811
45.92 5812
35.98 5813
36.00 5814
31.53 5815
33.67 5816
63.77 5817
44.08 5818
72.66 5819
61.63 5820
44.51 5821
61.84 5822
58.49 5823
50.91 5824
50.36 5825
51.26 5826
50.97 5827
30.2 5828
28.78 5829
27.86 5830
32.56 5831
23.76 5832
46.63 5833
52.33 5834
24.71 5835
77.45 5836
16.56 5837
63.1 5838
49.49 5839
52.99 5840
18.21 5841
51.29 5842
73.39 5843
19.49 5844
62.7 5845
28.71 5846
29.9 5847
62.12 5848
68.38 5849
30.21 5850
32.21 5851
37.06 5852
27.37 5853
38.93 5854
31.92 5855
34.57 5856
34.87 5857
61.60 5858
72.22 5859
51.52 5860
36.44 5861
40.37 5862
39.39 5863
61.04 5864
61.21 5865
60.07 5866
24.27 5867
56.67 5868
32.2 5869
16.59 5870
68.28 5871
35.72 5872
39.73 5873
65.39 5874
65.21 5875
67.59 5876
58.94 5877
55.72 5878
53.17 5879
65.24 5880
18.77 5881
71.07 5882
14.80 5883
18.49 5884
68.55 5885
61.39 5886
62.96 5887
72.64 5888
74.42 5889
33.5 5890
74.32 5891
59.94 5892
59.4 5893
20.54 5894
39.6 5895
58.38 5896
21.81 5897
55.24 5898
34.79 5899
31.88 5900
34.9 5901
58.2 5902
64.22 5903
37.30 5904
61.06 5905
32.78 5906
34.21 5907
33.96 5908
0.42. 5909
65.19 5910
33.81 5911
26.82 5912
76.11 5913
83.15 5914
81.39 5915
73.18 5916
58.99 5917
23.91 5918
29.16 5919
95.46 5920
20.88 5921
24.92 5922
59.72 5923
63.44 5924
60.14 5925
27.77 5926
80.56 5927
24.29 5928
82.81 5929
83.98 5930
26.5 5931
95.54 5932
83.75 5933
80.78 5934
80.67 5935
82.02 5936
31.93 5937
18.74 5938
95.55 5939
82.71 5940
9.50 5941
63.63 5942
48.02 5943
36.01 5944
40.01 5945
43.30 5946
44.66 5947
65.36 5948
45.44 5949
46.34 5950
46.36 5951
26.88 5952
36.29 5953
30.57 5954
38.87 5955
34.51 5956
50.16 5957
18.91 5958
49.98 5959
51.84 5960
47.18 5961
54.61 5962
61.92 5963
54.06 5964
53.41 5965
54.23 5966
50.13 5967
51.02 5968
54.49 5969
25.01 5970
51.99 5971
53.89 5972
52.1 5973
53.28 5974
19.86 5975
29.0 5976
48.83 5977
26.41 5978
27.18 5979
40.04 5980
35.23 5981
46.99 5982
49.74 5983
49.28 5984
41.17 5985
81.09 5986
51.59 5987
31.62 5988
33.32 5989
49.03 5990
19.22 5991
21.87 5992
52.16 5993
18.36 5994
52.88 5995
52.6 5996
19.08 5997
55.42 5998
64.13 5999
28.21 6000
28.06 6001
57.54 6002
78.95 6003
53.53 6004
28.95 6005
29.26 6006
57.81 6007
28.82 6008
29.1 6009
30.13 6010
57.89 6011
18.3 6012
37.32 6013
38.27 6014
38.64 6015
37.69 6016
38.82 6017
56.48 6018
62.47 6019
59.33 6020
58.33 6021
62.39 6022
58.32 6023
64.18 6024
65.43 6025
17.79 6026
64.55 6027
65.04 6028
60.38 6029
63.7 6030
62.63 6031
63.31 6032
16.91 6033
59.16 6034
66.07 6035
31.66 6036
62.04 6037
77.35 6038
24.24 6039
62.83 6040
60.51 6041
63.11 6042
32.46 6043
76.41 6044
73.46 6045
76.86 6046
62.86 6047
58.63 6048
30.5 6049
53.6 6050
19.09 6051
51.33 6052
55.28 6053
65.2 6054
26.59 6055
27.57 6056
31.59 6057
34.04 6058
0.54. 6059
55.7 6060
32.42 6061
72.97 6062
15.78 6063
27.58 6064
25.86 6065
72.55 6066
18.51 6067
5.20 6068
57.26 6069
20.36 6070
57.11 6071
77.98 6072
77.72 6073
81.75 6074
82.12 6075
18.06 6076
68.89 6077
55.5 6078
18.58 6079
28.36 6080
24.15 6081
19.14 6082
24.03 6083
23.82 6084
22.27 6085
28.29 6086
16.54 6087
15.7 6088
66.12 6089
60.86 6090
91.69 6091
92.08 6092
28.22 6093
95.41 6094
94.98 6095
26.18 6096
81.91 6097
81.41 6098
80.55 6099
55.01 6100
62.06 6101
82.95 6102
94.84 6103
17.24 6104
39.23 6105
38.74 6106
41.06 6107
40.93 6108
28.42 6109
7.40 6110
45.52 6111
35.67 6112
25.91 6113
36.39 6114
23.19 6115
26.87 6116
35.69 6117
50.94 6118
24.58 6119
55.63 6120
51.67 6121
27.87 6122
53.77 6123
46.39 6124
54.12 6125
52.5 6126
51.27 6127
24.6 6128
51.49 6129
28.96 6130
50.32 6131
48.62 6132
38.37 6133
50.77 6134
28.56 6135
33.83 6136
19.89 6137
40.82 6138
60.52 6139
41.36 6140
46.66 6141
46.77 6142
34.40 6143
19.19 6144
49.44 6145
35.16 6146
48.44 6147
50.37 6148
56.95 6149
51.54 6150
49.59 6151
30.6 6152
28.24 6153
53.34 6154
52.32 6155
52.78 6156
52.03 6157
51.98 6158
51.56 6159
30.55 6160
22.50 6161
66.08 6162
15.20 6163
6.10 6164
51.53 6165
18.43 6166
20.33 6167
48.7 6168
51.66 6169
63.27 6170
55.81 6171
55.39 6172
54.1 6173
54.41 6174
56.44 6175
69.83 6176
73.12 6177
66.52 6178
19.27 6179
64.5 6180
29.39 6181
28.28 6182
34.99 6183
34.69 6184
38.68 6185
37.92 6186
60.89 6187
77.61 6188
57.72 6189
64.8 6190
62.79 6191
43.06 6192
41.09 6193
63.46 6194
17.13 6195
20.64 6196
59.27 6197
59.79 6198
34.23 6199
26.91 6200
49.71 6201
58.77 6202
59.42 6203
50.43 6204
60.96 6205
56.01 6206
65.93 6207
65.58 6208
26.57 6209
64.21 6210
60.43 6211
67.77 6212
63.03 6213
82.13 6214
60.17 6215
58.11 6216
63.94 6217
68.56 6218
57.31 6219
62.02 6220
32.76 6221
31.74 6222
31.46 6223
31.32 6224
32.63 6225
32.64 6226
35.7 6227
36.17 6228
0.55. 6229
0.45. 6230
34.38 6231
33.29 6232
6.90 6233
58.5 6234
55.32 6235
64.28 6236
23.63 6237
63.86 6238
55.9 6239
71.22 6240
16.93 6241
23.93 6242
85.29 6243
72.47 6244
91.76 6245
28.18 6246
29.93 6247
19.97 6248
50.79 6249
78.47 6250
32.08 6251
54.52 6252
53.14 6253
65.5 6254
10.70 6255
72.67 6256
57.68 6257
26.64 6258
23.44 6259
18.9 6260
81.55 6261
24.68 6262
81.47 6263
81.24 6264
82.04 6265
94.73 6266
18.98 6267
81.16 6268
10.60 6269
27.38 6270
19.16 6271
26.13 6272
ltd's 6273
18.94 6274
34.44 6275
37.50 6276
46.47 6277
41.80 6278
37.09 6279
80.46 6280
18.4 6281
35.94 6282
30.59 6283
24.94 6284
25.43 6285
47.07 6286
28.88 6287
32.6 6288
54.39 6289
42.7 6290
42.39 6291
49.67 6292
54.2 6293
29.33 6294
53.1 6295
52.06 6296
29.41 6297
54.33 6298
47.57 6299
50.18 6300
50.27 6301
46.09 6302
63.78 6303
19.58 6304
18.17 6305
18.78 6306
34.71 6307
29.12 6308
64.59 6309
51.79 6310
63.5 6311
21.20 6312
61.41 6313
50.74 6314
51.09 6315
52.2 6316
35.93 6317
17.29 6318
18.57 6319
45.82 6320
18.47 6321
52.21 6322
59.34 6323
58.06 6324
49.7 6325
55.6 6326
16.61 6327
27.19 6328
27.27 6329
29.72 6330
62.11 6331
72.11 6332
29.73 6333
74.11 6334
32.33 6335
69.29 6336
65.96 6337
62.09 6338
57.6 6339
67.84 6340
36.32 6341
32.3 6342
57.7 6343
65.83 6344
40.1 6345
37.86 6346
58.74 6347
69.37 6348
60.46 6349
72.25 6350
60.84 6351
59.43 6352
62.62 6353
19.29 6354
58.07 6355
59.24 6356
54.27 6357
64.76 6358
72.95 6359
71.23 6360
65.75 6361
77.88 6362
61.08 6363
74.19 6364
80.66 6365
60.77 6366
61.74 6367
62.48 6368
64.4 6369
31.15 6370
81.04 6371
59.29 6372
57.27 6373
37.10 6374
69.45 6375
61.07 6376
59.14 6377
82.28 6378
60.31 6379
34.83 6380
29.71 6381
64.95 6382
66.8 6383
34.14 6384
61.22 6385
55.16 6386
23.67 6387
18.39 6388
31.02 6389
94.59 6390
82.74 6391
27.49 6392
16.66 6393
55.09 6394
82.11 6395
77.32 6396
56.28 6397
78.75 6398
60.33 6399
20.79 6400
50.07 6401
53.71 6402
54.96 6403
56.74 6404
55.07 6405
59.77 6406
57.92 6407
60.08 6408
17.39 6409
19.76 6410
25.9 6411
31.47 6412
30.22 6413
71.53 6414
19.46 6415
65.12 6416
10.40 6417
72.27 6418
74.55 6419
80.73 6420
83.19 6421
91.65 6422
20.73 6423
26.78 6424
83.91 6425
24.1 6426
21.70 6427
27.64 6428
81.35 6429
16.00 6430
82.46 6431
83.68 6432
24.86 6433
20.52 6434
25.62 6435
19.33 6436
16.39 6437
81.15 6438
20.29 6439
24.49 6440
0.19. 6441
20.46 6442
38.62 6443
37.28 6444
38.12 6445
18.52 6446
44.80 6447
67.88 6448
47.50 6449
25.49 6450
65.98 6451
30.65 6452
47.30 6453
50.08 6454
34.47 6455
40.6 6456
56.97 6457
50.38 6458
53.52 6459
53.87 6460
54.09 6461
49.43 6462
24.4 6463
56.24 6464
51.4 6465
24.01 6466
52.34 6467
52.52 6468
49.07 6469
51.07 6470
49.8 6471
24.79 6472
41.07 6473
20.76 6474
62.14 6475
15.77 6476
49.24 6477
25.79 6478
52.41 6479
52.48 6480
51.13 6481
50.03 6482
29.7 6483
50.99 6484
9.10 6485
48.69 6486
56.83 6487
24.88 6488
54.51 6489
17.61 6490
72.69 6491
52.87 6492
66.95 6493
73.19 6494
29.58 6495
30.53 6496
30.7 6497
69.21 6498
32.09 6499
35.88 6500
61.24 6501
53.26 6502
39.64 6503
38.9 6504
17.57 6505
16.89 6506
25.27 6507
66.37 6508
19.28 6509
19.26 6510
24.57 6511
55.11 6512
20.93 6513
60.09 6514
54.47 6515
58.84 6516
51.14 6517
19.32 6518
48.67 6519
25.54 6520
64.97 6521
60.63 6522
74.73 6523
71.85 6524
23.49 6525
64.36 6526
67.8 6527
65.34 6528
84.25 6529
61.30 6530
17.97 6531
31.6 6532
32.5 6533
24.91 6534
36.90 6535
57.63 6536
67.27 6537
33.36 6538
77.16 6539
62.26 6540
33.82 6541
29.68 6542
60.37 6543
9.40 6544
78.06 6545
15.40 6546
23.23 6547
27.22 6548
95.39 6549
81.22 6550
94.62 6551
27.16 6552
95.68 6553
29.17 6554
29.78 6555
18.0 6556
94.76 6557
61.14 6558
26.9 6559
25.63 6560
78.38 6561
74.65 6562
77.57 6563
77.62 6564
0.51. 6565
81.95 6566
83.08 6567
53.31 6568
57.32 6569
56.69 6570
18.09 6571
54.72 6572
24.89 6573
71.05 6574
72.75 6575
94.45 6576
81.38 6577
27.26 6578
92.11 6579
80.65 6580
82.75 6581
85.15 6582
25.77 6583
74.29 6584
38.09 6585
7.30 6586
46.98 6587
70.82 6588
51.94 6589
52.18 6590
45.01 6591
50.84 6592
49.68 6593
50.2 6594
40.89 6595
28.17 6596
53.67 6597
68.04 6598
53.82 6599
29.2 6600
52.42 6601
24.19 6602
50.68 6603
33.94 6604
20.56 6605
31.37 6606
17.32 6607
20.83 6608
65.1 6609
67.48 6610
7.60 6611
38.32 6612
45.76 6613
52.22 6614
48.84 6615
57.46 6616
48.92 6617
34.01 6618
32.18 6619
53.03 6620
30.97 6621
77.69 6622
25.35 6623
50.23 6624
50.02 6625
11.70 6626
57.74 6627
82.19 6628
12.40 6629
26.34 6630
57.61 6631
17.58 6632
67.1 6633
63.24 6634
76.83 6635
50.9 6636
51.63 6637
52.84 6638
79.69 6639
53.48 6640
54.56 6641
54.64 6642
50.66 6643
51.7 6644
59.81 6645
55.83 6646
7.90 6647
19.38 6648
18.03 6649
28.58 6650
72.01 6651
71.01 6652
29.67 6653
70.12 6654
33.91 6655
34.12 6656
61.17 6657
70.19 6658
35.78 6659
66.46 6660
52.37 6661
34.16 6662
66.42 6663
50.71 6664
67.12 6665
59.71 6666
35.81 6667
36.53 6668
39.36 6669
37.59 6670
57.84 6671
23.54 6672
27.06 6673
19.62 6674
17.23 6675
55.52 6676
59.76 6677
62.37 6678
58.86 6679
21.00 6680
53.57 6681
83.95 6682
77.81 6683
58.8 6684
74.49 6685
71.61 6686
24.23 6687
62.03 6688
61.49 6689
27.23 6690
35.4 6691
56.64 6692
59.49 6693
57.79 6694
39.11 6695
69.51 6696
31.31 6697
28.35 6698
71.25 6699
64.96 6700
67.41 6701
65.38 6702
sell. 6703
25.82 6704
81.26 6705
16.53 6706
26.83 6707
19.36 6708
95.19 6709
94.61 6710
81.69 6711
75.78 6712
25.58 6713
56.77 6714
38.63 6715
83.18 6716
24.84 6717
30.93 6718
52.92 6719
7.70 6720
72.46 6721
70.35 6722
56.72 6723
56.52 6724
61.68 6725
66.21 6726
55.59 6727
62.8 6728
27.99 6729
29.88 6730
25.23 6731
23.83 6732
28.9 6733
68.73 6734
11.30 6735
84.75 6736
92.14 6737
83.29 6738
55.73 6739
17.99 6740
81.07 6741
27.61 6742
94.43 6743
81.05 6744
47.90 6745
20.10 6746
20.48 6747
62.13 6748
31.83 6749
19.93 6750
65.09 6751
38.29 6752
32.19 6753
34.93 6754
32.7 6755
36.08 6756
46.88 6757
46.80 6758
46.69 6759
38.53 6760
30.64 6761
46.18 6762
81.63 6763
52.96 6764
46.76 6765
52.26 6766
32.48 6767
52.49 6768
23.92 6769
53.69 6770
29.09 6771
26.66 6772
53.36 6773
51.41 6774
32.06 6775
30.52 6776
25.74 6777
44.93 6778
15.10 6779
25.25 6780
41.04 6781
9.20 6782
35.97 6783
52.23 6784
54.28 6785
51.22 6786
50.82 6787
46.00 6788
52.82 6789
63.34 6790
53.88 6791
58.34 6792
57.99 6793
52.36 6794
37.26 6795
87.71 6796
63.2 6797
63.52 6798
55.44 6799
30.1 6800
31.19 6801
65.48 6802
20.39 6803
83.3 6804
29.46 6805
32.66 6806
82.99 6807
62.69 6808
62.51 6809
38.7 6810
67.38 6811
79.71 6812
60.66 6813
18.68 6814
62.28 6815
56.71 6816
64.19 6817
36.80 6818
15.63 6819
81.94 6820
61.69 6821
60.34 6822
50.3 6823
63.58 6824
64.86 6825
63.39 6826
70.26 6827
82.67 6828
73.95 6829
64.6 6830
81.31 6831
73.0 6832
64.51 6833
61.46 6834
61.89 6835
63.18 6836
61.99 6837
58.22 6838
34.22 6839
53.76 6840
26.11 6841
65.86 6842
5.40 6843
32.01 6844
32.57 6845
86.32 6846
0.50. 6847
67.11 6848
33.74 6849
34.26 6850
25.06 6851
85.51 6852
29.47 6853
29.66 6854
94.48 6855
24.44 6856
80.23 6857
54.04 6858
22.0 6859
77.41 6860
74.31 6861
72.43 6862
78.11 6863
77.49 6864
79.16 6865
80.01 6866
57.52 6867
53.93 6868
56.93 6869
54.97 6870
67.95 6871
17.69 6872
57.91 6873
26.3 6874
27.71 6875
18.64 6876
51.21 6877
20.30 6878
29.8 6879
71.98 6880
72.63 6881
71.74 6882
18.76 6883
19.68 6884
25.16 6885
94.92 6886
94.35 6887
85.85 6888
24.07 6889
25.6 6890
15.76 6891
59.52 6892
19.70 6893
81.59 6894
83.36 6895
81.14 6896
29.92 6897
26.33 6898
0.26. 6899
73.99 6900
23.88 6901
plc's 6902
34.48 6903
51.58 6904
36.50 6905
34.76 6906
68.01 6907
0.85. 6908
32.72 6909
54.81 6910
56.17 6911
53.12 6912
54.87 6913
76.47 6914
54.53 6915
30.26 6916
35.3 6917
25.42 6918
54.26 6919
71.11 6920
32.34 6921
49.39 6922
48.37 6923
18.88 6924
56.21 6925
25.68 6926
26.7 6927
52.68 6928
17.78 6929
25.45 6930
80.41 6931
16.47 6932
71.64 6933
69.95 6934
57.40 6935
52.53 6936
24.56 6937
53.92 6938
27.74 6939
64.11 6940
63.69 6941
29.3 6942
74.74 6943
62.23 6944
0.65. 6945
73.68 6946
0.73. 6947
67.34 6948
31.68 6949
65.92 6950
55.89 6951
25.94 6952
38.26 6953
63.19 6954
65.53 6955
46.64 6956
72.42 6957
41.11 6958
64.01 6959
63.22 6960
56.63 6961
56.41 6962
23.28 6963
65.4 6964
39.50 6965
65.49 6966
23.79 6967
68.53 6968
39.51 6969
34.24 6970
26.06 6971
27.0 6972
65.9 6973
19.44 6974
59.61 6975
62.71 6976
69.05 6977
62.68 6978
72.86 6979
81.92 6980
73.51 6981
82.17 6982
72.94 6983
62.81 6984
58.14 6985
16.7 6986
32.14 6987
31.79 6988
65.63 6989
66.96 6990
37.16 6991
32.74 6992
47.99 6993
30.3 6994
31.87 6995
71.68 6996
31.52 6997
65.77 6998
34.73 6999
62.27 7000
69.23 7001
84.76 7002
82.53 7003
53.42 7004
overbought 7005
selling 7006
94.29 7007
85.34 7008
81.02 7009
25.69 7010
22.23 7011
25.04 7012
62.18 7013
82.77 7014
43.02 7015
74.86 7016
74.75 7017
77.73 7018
77.51 7019
57.06 7020
0.29. 7021
58.64 7022
78.29 7023
0.38. 7024
24.02 7025
70.24 7026
26.08 7027
71.39 7028
57.66 7029
64.72 7030
66.82 7031
59.99 7032
21.40 7033
53.73 7034
84.47 7035
24.72 7036
71.12 7037
72.45 7038
72.14 7039
83.69 7040
94.69 7041
80.51 7042
79.55 7043
25.73 7044
82.08 7045
73.45 7046
23.39 7047
82.62 7048
26.24 7049
29.43 7050
60.88 7051
83.52 7052
co's 7053
43.70 7054
44.50 7055
29.87 7056
48.52 7057
46.12 7058
45.26 7059
40.07 7060
30.43 7061
27.2 7062
54.88 7063
24.12 7064
57.50 7065
24.31 7066
28.67 7067
30.01 7068
29.99 7069
53.06 7070
38.20 7071
17.00 7072
50.72 7073
33.97 7074
46.13 7075
34.52 7076
48.9 7077
35.33 7078
34.72 7079
74.26 7080
29.29 7081
29.34 7082
30.19 7083
51.17 7084
50.29 7085
49.87 7086
22.30 7087
16.50 7088
16.80 7089
80.72 7090
63.72 7091
74.71 7092
31.51 7093
31.97 7094
68.81 7095
26.51 7096
32.62 7097
83.42 7098
59.63 7099
57.93 7100
77.79 7101
56.06 7102
39.94 7103
63.4 7104
63.36 7105
63.98 7106
55.69 7107
30.56 7108
71.51 7109
73.41 7110
71.73 7111
71.49 7112
32.22 7113
61.79 7114
82.31 7115
64.27 7116
64.88 7117
67.72 7118
79.04 7119
66.57 7120
73.33 7121
63.96 7122
27.69 7123
62.32 7124
62.61 7125
28.09 7126
24.66 7127
31.63 7128
30.08 7129
72.99 7130
26.86 7131
34.94 7132
64.29 7133
29.62 7134
55.74 7135
59.73 7136
27.34 7137
95.25 7138
86.92 7139
83.44 7140
31.24 7141
23.8 7142
78.05 7143
73.83 7144
75.41 7145
73.62 7146
55.47 7147
77.97 7148
81.79 7149
26.8 7150
29.02 7151
72.15 7152
63.9 7153
20.02 7154
57.96 7155
19.02 7156
58.93 7157
25.93 7158
72.23 7159
31.44 7160
69.48 7161
68.37 7162
94.49 7163
25.17 7164
82.49 7165
84.03 7166
94.54 7167
83.35 7168
81.12 7169
82.88 7170
31.73 7171
72.96 7172
80.12 7173
67.26 7174
23.11 7175
27.82 7176
28.74 7177
28.03 7178
24.06 7179
20.42 7180
74.24 7181
18.92 7182
51.44 7183
48.38 7184
36.71 7185
29.61 7186
42.60 7187
40.9 7188
64.17 7189
26.44 7190
56.91 7191
56.76 7192
64.46 7193
51.88 7194
19.48 7195
25.00 7196
46.19 7197
34.17 7198
50.63 7199
45.30 7200
46.42 7201
45.60 7202
8.20 7203
68.72 7204
52.98 7205
26.54 7206
32.51 7207
51.16 7208
29.5 7209
55.2 7210
52.83 7211
52.44 7212
72.58 7213
24.00 7214
48.16 7215
50.93 7216
51.89 7217
78.69 7218
71.75 7219
61.59 7220
65.31 7221
76.39 7222
78.08 7223
28.07 7224
28.81 7225
71.36 7226
62.76 7227
63.37 7228
34.46 7229
63.8 7230
63.68 7231
36.10 7232
30.68 7233
31.34 7234
60.29 7235
66.14 7236
52.73 7237
66.02 7238
61.40 7239
19.01 7240
61.00 7241
62.33 7242
61.09 7243
69.17 7244
35.41 7245
59.62 7246
62.66 7247
53.32 7248
55.62 7249
26.4 7250
52.57 7251
26.96 7252
63.07 7253
69.11 7254
67.03 7255
63.57 7256
66.27 7257
63.06 7258
63.6 7259
16.30 7260
63.92 7261
62.78 7262
69.43 7263
75.72 7264
79.75 7265
85.35 7266
63.93 7267
60.60 7268
58.53 7269
62.57 7270
65.88 7271
59.86 7272
63.42 7273
69.75 7274
33.34 7275
34.08 7276
71.87 7277
63.66 7278
34.18 7279
37.60 7280
72.09 7281
34.54 7282
8.00 7283
82.21 7284
95.12 7285
87.44 7286
83.71 7287
82.23 7288
16.69 7289
73.27 7290
79.68 7291
76.89 7292
77.03 7293
82.14 7294
78.54 7295
0.70. 7296
77.56 7297
39.07 7298
78.01 7299
80.85 7300
82.03 7301
32.07 7302
81.89 7303
70.07 7304
79.03 7305
55.86 7306
57.2 7307
56.84 7308
18.42 7309
0.84. 7310
65.73 7311
68.05 7312
65.27 7313
18.50 7314
57.59 7315
23.32 7316
52.31 7317
70.65 7318
70.11 7319
25.76 7320
72.28 7321
70.72 7322
73.24 7323
94.51 7324
91.95 7325
92.01 7326
83.06 7327
25.57 7328
80.82 7329
82.92 7330
81.73 7331
15.50 7332
74.85 7333
73.31 7334
82.47 7335
83.27 7336
22.24 7337
0.18. 7338
0.40. 7339
23.72 7340
87.43 7341
81.83 7342
80.39 7343
82.85 7344
47.20 7345
80.19 7346
41.90 7347
28.44 7348
35.68 7349
33.93 7350
40.73 7351
26.72 7352
51.93 7353
27.13 7354
51.34 7355
65.07 7356
64.54 7357
25.11 7358
56.03 7359
53.68 7360
7.80 7361
53.3 7362
75.04 7363
29.19 7364
53.4 7365
53.04 7366
34.31 7367
67.21 7368
55.8 7369
59.53 7370
37.20 7371
68.77 7372
33.9 7373
50.44 7374
25.33 7375
31.18 7376
78.41 7377
51.31 7378
28.4 7379
51.01 7380
59.51 7381
20.78 7382
16.94 7383
73.17 7384
52.7 7385
52.27 7386
48.00 7387
52.74 7388
55.96 7389
52.71 7390
52.12 7391
53.24 7392
59.54 7393
27.09 7394
75.62 7395
64.3 7396
28.69 7397
74.97 7398
29.32 7399
29.74 7400
0.74. 7401
70.95 7402
62.31 7403
30.76 7404
29.59 7405
30.54 7406
30.38 7407
0.79. 7408
53.62 7409
69.02 7410
79.95 7411
35.64 7412
55.64 7413
65.6 7414
66.81 7415
62.6 7416
39.09 7417
65.41 7418
65.78 7419
87.84 7420
62.56 7421
68.57 7422
61.67 7423
18.69 7424
63.01 7425
24.9 7426
60.00 7427
66.43 7428
53.58 7429
57.34 7430
63.23 7431
63.41 7432
71.58 7433
83.82 7434
62.87 7435
61.77 7436
56.59 7437
56.81 7438
32.12 7439
31.3 7440
73.57 7441
65.62 7442
32.89 7443
81.13 7444
0.76. 7445
71.4 7446
32.24 7447
32.71 7448
32.69 7449
0.61. 7450
0.63. 7451
31.16 7452
87.08 7453
94.97 7454
83.56 7455
30.73 7456
18.63 7457
24.76 7458
22.40 7459
82.63 7460
26.93 7461
67.44 7462
77.84 7463
77.91 7464
77.27 7465
77.37 7466
78.43 7467
78.07 7468
77.54 7469
74.39 7470
0.35. 7471
0.37. 7472
78.71 7473
69.79 7474
80.48 7475
67.57 7476
84.04 7477
71.57 7478
70.77 7479
31.38 7480
26.77 7481
71.78 7482
73.91 7483
67.35 7484
55.78 7485
59.66 7486
24.63 7487
61.37 7488
67.87 7489
70.22 7490
78.81 7491
83.14 7492
81.33 7493
95.37 7494
95.34 7495
95.52 7496
81.98 7497
67.14 7498
56.53 7499
25.56 7500
81.85 7501
24.98 7502
95.21 7503
63.21 7504
20.20 7505
26.2 7506
84.45 7507
82.24 7508
75.11 7509
73.77 7510
31.81 7511
28.77 7512
24.95 7513
73.75 7514
0.23. 7515
0.24. 7516
37.80 7517
38.39 7518
39.38 7519
43.60 7520
31.69 7521
46.23 7522
47.70 7523
0.81. 7524
53.39 7525
50.04 7526
23.84 7527
94.66 7528
53.96 7529
25.98 7530
52.3 7531
68.44 7532
47.80 7533
34.09 7534
12.30 7535
45.40 7536
66.65 7537
50.1 7538
53.21 7539
33.84 7540
29.13 7541
53.81 7542
50.67 7543
30.33 7544
49.76 7545
79.06 7546
50.14 7547
72.53 7548
66.99 7549
58.71 7550
50.17 7551
64.77 7552
59.13 7553
53.22 7554
54.16 7555
54.58 7556
51.62 7557
55.82 7558
53.07 7559
52.89 7560
72.6 7561
28.47 7562
76.81 7563
71.99 7564
70.81 7565
30.07 7566
28.3 7567
31.48 7568
71.79 7569
30.0 7570
31.07 7571
31.13 7572
72.02 7573
30.14 7574
29.6 7575
70.5 7576
31.26 7577
73.53 7578
30.86 7579
68.33 7580
68.24 7581
69.99 7582
66.2 7583
0.48. 7584
0.62. 7585
38.22 7586
65.71 7587
64.98 7588
66.53 7589
35.84 7590
57.23 7591
65.23 7592
65.26 7593
38.30 7594
14.60 7595
71.34 7596
67.0 7597
65.8 7598
39.20 7599
12.10 7600
19.12 7601
65.3 7602
78.87 7603
69.82 7604
63.47 7605
67.85 7606
68.32 7607
23.74 7608
14.50 7609
19.80 7610
67.3 7611
68.61 7612
68.31 7613
85.62 7614
53.43 7615
32.23 7616
7.50 7617
60.50 7618
66.36 7619
36.70 7620
72.81 7621
72.18 7622
64.38 7623
52.91 7624
31.89 7625
33.72 7626
65.59 7627
66.49 7628
16.98 7629
0.47. 7630
31.82 7631
68.48 7632
33.88 7633
62.94 7634
66.9 7635
57.22 7636
73.34 7637
68.91 7638
26.26 7639
25.19 7640
85.27 7641
81.74 7642
79.38 7643
82.57 7644
91.58 7645
88.93 7646
23.50 7647
71.02 7648
26.97 7649
31.21 7650
26.56 7651
84.16 7652
31.12 7653
84.46 7654
66.09 7655
76.35 7656
84.91 7657
75.36 7658
73.52 7659
78.18 7660
77.64 7661
77.52 7662
78.49 7663
70.99 7664
51.10 7665
65.54 7666
60.79 7667
63.29 7668
61.80 7669
68.98 7670
56.50 7671
62.00 7672
0.58. 7673
31.04 7674
74.28 7675
65.51 7676
65.52 7677
95.45 7678
94.95 7679
72.38 7680
70.25 7681
20.70 7682
84.08 7683
94.68 7684
95.33 7685
95.27 7686
88.55 7687
29.22 7688
24.83 7689
92.02 7690
24.81 7691
81.86 7692
72.33 7693
84.02 7694
80.53 7695
78.63 7696
77.87 7697
82.22 7698
25.52 7699
68.22 7700
70.9 7701
83.54 7702
23.7 7703
0.92. 7704
38.60 7705
42.90 7706
44.40 7707
82.38 7708
52.9 7709
28.52 7710
48.61 7711
48.50 7712
49.93 7713
46.91 7714
26.52 7715
42.10 7716
38.13 7717
65.91 7718
50.01 7719
50.49 7720
50.19 7721
48.60 7722
52.62 7723
70.46 7724
64.63 7725
54.18 7726
74.56 7727
57.00 7728
77.47 7729
52.81 7730
28.34 7731
64.79 7732
30.48 7733
30.36 7734
31.84 7735
64.31 7736
35.00 7737
66.00 7738
34.36 7739
32.04 7740
76.98 7741
65.84 7742
73.42 7743
35.74 7744
35.90 7745
67.46 7746
37.90 7747
65.74 7748
57.36 7749
63.71 7750
19.83 7751
24.21 7752
63.54 7753
68.96 7754
65.02 7755
60.61 7756
59.48 7757
60.49 7758
63.49 7759
57.87 7760
18.96 7761
30.12 7762
63.04 7763
64.68 7764
70.71 7765
16.60 7766
57.86 7767
64.73 7768
66.66 7769
69.07 7770
62.41 7771
74.01 7772
65.64 7773
80.27 7774
79.09 7775
28.33 7776
59.83 7777
62.92 7778
60.58 7779
64.07 7780
33.24 7781
37.00 7782
67.04 7783
70.78 7784
25.32 7785
0.36. 7786
0.44. 7787
0.90. 7788
53.51 7789
83.09 7790
72.85 7791
21.50 7792
30.51 7793
27.1 7794
94.85 7795
88.88 7796
31.56 7797
80.21 7798
94.65 7799
80.89 7800
58.42 7801
77.15 7802
85.44 7803
76.55 7804
73.97 7805
72.56 7806
77.58 7807
77.48 7808
77.95 7809
78.17 7810
77.74 7811
78.12 7812
81.54 7813
81.76 7814
68.42 7815
82.06 7816
67.67 7817
72.82 7818
51.74 7819
56.18 7820
65.18 7821
63.32 7822
17.67 7823
58.36 7824
26.14 7825
23.40 7826
74.06 7827
68.99 7828
66.74 7829
68.65 7830
67.71 7831
71.55 7832
71.52 7833
87.78 7834
72.73 7835
91.97 7836
95.17 7837
82.94 7838
55.57 7839
24.8 7840
84.11 7841
82.54 7842
80.09 7843
81.42 7844
80.76 7845
75.07 7846
83.41 7847
85.47 7848
83.57 7849
91.55 7850
21.80 7851
58.04 7852
59.30 7853
55.23 7854
68.47 7855
83.81 7856
72.34 7857
0.39. 7858
74.17 7859
82.48 7860
74.82 7861
31.09 7862
28.59 7863
18.93 7864
70.59 7865
83.12 7866
85.66 7867
40.84 7868
67.06 7869
36.07 7870
36.03 7871
68.85 7872
23.64 7873
35.80 7874
88.65 7875
36.60 7876
50.69 7877
24.18 7878
45.91 7879
0.95. 7880
64.53 7881
45.94 7882
49.9 7883
35.96 7884
31.01 7885
47.19 7886
26.1 7887
67.96 7888
66.79 7889
77.09 7890
9.30 7891
95.49 7892
56.56 7893
57.98 7894
72.12 7895
65.68 7896
75.68 7897
72.84 7898
76.56 7899
78.51 7900
30.41 7901
30.06 7902
67.22 7903
71.62 7904
30.28 7905
32.43 7906
31.61 7907
72.03 7908
68.64 7909
64.66 7910
69.67 7911
32.16 7912
81.82 7913
31.27 7914
35.42 7915
0.77. 7916
0.53. 7917
38.10 7918
61.16 7919
76.61 7920
28.32 7921
61.47 7922
56.98 7923
27.3 7924
64.34 7925
63.99 7926
36.20 7927
65.57 7928
63.43 7929
64.03 7930
25.13 7931
62.08 7932
73.3 7933
73.14 7934
62.29 7935
67.81 7936
58.00 7937
65.11 7938
60.03 7939
59.70 7940
66.29 7941
71.89 7942
20.66 7943
57.29 7944
34.10 7945
69.01 7946
70.3 7947
31.86 7948
32.00 7949
31.72 7950
27.80 7951
29.69 7952
0.67. 7953
66.38 7954
66.5 7955
32.87 7956
34.19 7957
31.39 7958
29.94 7959
94.87 7960
82.33 7961
95.71 7962
92.06 7963
28.11 7964
59.28 7965
27.94 7966
24.47 7967
75.21 7968
72.26 7969
56.79 7970
52.04 7971
78.24 7972
0.49. 7973
79.86 7974
72.93 7975
80.03 7976
80.35 7977
70.88 7978
73.36 7979
79.74 7980
21.10 7981
16.20 7982
56.00 7983
15.30 7984
73.23 7985
25.14 7986
24.62 7987
30.04 7988
81.34 7989
68.36 7990
63.83 7991
73.15 7992
73.11 7993
25.5 7994
82.45 7995
73.88 7996
95.01 7997
87.76 7998
28.87 7999
82.29 8000
95.18 8001
80.58 8002
81.58 8003
83.63 8004
84.95 8005
81.46 8006
22.80 8007
29.89 8008
73.74 8009
27.02 8010
83.25 8011
73.43 8012
24.69 8013
27.29 8014
73.21 8015
0.27. 8016
95.48 8017
94.74 8018
24.67 8019
68.82 8020
83.13 8021
55.4 8022
50.00 8023
44.00 8024
46.62 8025
64.94 8026
65.47 8027
67.19 8028
43.40 8029
34.06 8030
79.67 8031
34.03 8032
25.18 8033
30.4 8034
45.68 8035
44.60 8036
43.20 8037
1.28. 8038
78.09 8039
54.42 8040
51.61 8041
48.40 8042
27.7 8043
51.12 8044
52.76 8045
64.52 8046
19.07 8047
64.89 8048
73.16 8049
51.11 8050
49.94 8051
75.52 8052
66.44 8053
52.43 8054
52.97 8055
57.24 8056
53.46 8057
53.18 8058
28.91 8059
66.94 8060
72.19 8061
70.48 8062
30.99 8063
72.92 8064
31.57 8065
62.59 8066
83.22 8067
31.4 8068
34.28 8069
65.94 8070
69.35 8071
55.04 8072
37.61 8073
63.79 8074
64.42 8075
30.8 8076
70.31 8077
68.03 8078
40.50 8079
71.71 8080
56.92 8081
25.92 8082
65.33 8083
25.37 8084
67.86 8085
71.65 8086
67.69 8087
65.72 8088
62.34 8089
73.71 8090
82.09 8091
83.07 8092
69.91 8093
74.12 8094
78.76 8095
37.40 8096
69.41 8097
61.50 8098
60.64 8099
59.50 8100
58.30 8101
28.1 8102
65.13 8103
56.96 8104
60.90 8105
59.89 8106
66.13 8107
63.88 8108
31.28 8109
30.61 8110
71.42 8111
64.69 8112
35.82 8113
0.59. 8114
34.27 8115
75.86 8116
25.07 8117
82.37 8118
7.00 8119
19.06 8120
91.99 8121
86.56 8122
83.94 8123
83.61 8124
84.31 8125
30.98 8126
19.04 8127
95.15 8128
26.23 8129
24.96 8130
57.77 8131
75.47 8132
76.02 8133
77.06 8134
76.07 8135
75.75 8136
77.63 8137
83.59 8138
74.05 8139
0.34. 8140
78.45 8141
32.13 8142
61.42 8143
70.38 8144
67.08 8145
67.62 8146
24.34 8147
68.41 8148
73.47 8149
70.67 8150
87.22 8151
78.79 8152
91.63 8153
85.42 8154
83.02 8155
90.69 8156
92.18 8157
79.25 8158
80.95 8159
81.19 8160
83.21 8161
80.97 8162
95.56 8163
77.24 8164
24.43 8165
73.66 8166
95.06 8167
73.25 8168
77.42 8169
66.98 8170
45.90 8171
1.08. 8172
26.98 8173
25.41 8174
50.50 8175
52.28 8176
66.06 8177
26.38 8178
55.00 8179
55.87 8180
51.96 8181
8.80 8182
19.10 8183
9.60 8184
85.93 8185
33.71 8186
52.67 8187
25.36 8188
80.06 8189
51.30 8190
52.07 8191
92.25 8192
72.72 8193
78.85 8194
94.82 8195
51.68 8196
53.27 8197
59.36 8198
28.41 8199
58.24 8200
68.79 8201
64.04 8202
74.83 8203
28.72 8204
72.89 8205
74.27 8206
74.36 8207
69.54 8208
74.0 8209
31.54 8210
70.64 8211
68.63 8212
64.92 8213
38.18 8214
26.6 8215
74.35 8216
62.50 8217
68.39 8218
71.0 8219
64.58 8220
36.30 8221
69.31 8222
69.44 8223
61.93 8224
63.97 8225
66.4 8226
66.64 8227
65.69 8228
65.17 8229
71.2 8230
82.96 8231
71.41 8232
53.2 8233
76.06 8234
24.39 8235
69.19 8236
75.59 8237
94.24 8238
70.56 8239
64.47 8240
77.05 8241
83.5 8242
77.28 8243
59.37 8244
85.21 8245
78.65 8246
65.76 8247
31.23 8248
72.48 8249
30.96 8250
33.99 8251
67.68 8252
69.06 8253
63.74 8254
0.52. 8255
0.68. 8256
23.57 8257
67.7 8258
31.90 8259
68.12 8260
77.44 8261
72.08 8262
25.47 8263
30.02 8264
82.83 8265
25.34 8266
86.05 8267
95.66 8268
18.1 8269
85.73 8270
82.89 8271
81.93 8272
87.42 8273
84.35 8274
79.56 8275
80.45 8276
63.17 8277
65.89 8278
92.26 8279
76.19 8280
95.65 8281
25.89 8282
25.22 8283
80.86 8284
73.32 8285
66.51 8286
70.96 8287
72.7 8288
76.25 8289
76.95 8290
77.55 8291
74.64 8292
78.15 8293
94.56 8294
72.68 8295
71.26 8296
71.38 8297
72.76 8298
25.09 8299
30.49 8300
24.54 8301
24.7 8302
24.93 8303
69.97 8304
68.71 8305
24.36 8306
73.98 8307
71.9 8308
68.13 8309
83.47 8310
80.32 8311
82.58 8312
85.16 8313
82.64 8314
83.11 8315
26.46 8316
95.36 8317
80.25 8318
80.04 8319
29.91 8320
80.44 8321
81.36 8322
82.97 8323
82.52 8324
76.01 8325
80.15 8326
83.04 8327
54.34 8328
81.45 8329
56.46 8330
74.07 8331
57.57 8332
69.36 8333
74.44 8334
73.56 8335
29.28 8336
0.33. 8337
0.20. 8338
19.60 8339
20.80 8340
18.20 8341
81.87 8342
81.01 8343
34.34 8344
0.98. 8345
46.93 8346
35.77 8347
44.10 8348
45.00 8349
38.00 8350
47.00 8351
0.69. 8352
83.78 8353
26.43 8354
23.78 8355
76.13 8356
69.93 8357
53.11 8358
28.00 8359
30.11 8360
85.25 8361
65.46 8362
48.30 8363
34.60 8364
7.10 8365
9.00 8366
70.94 8367
19.41 8368
57.80 8369
73.59 8370
69.52 8371
75.16 8372
71.54 8373
71.29 8374
30.46 8375
30.89 8376
70.7 8377
0.78. 8378
65.29 8379
41.20 8380
83.89 8381
0.88. 8382
80.92 8383
66.24 8384
71.81 8385
66.63 8386
54.44 8387
65.37 8388
70.8 8389
68.6 8390
68.93 8391
85.77 8392
95.08 8393
95.5 8394
74.48 8395
67.47 8396
24.52 8397
77.99 8398
72.71 8399
71.43 8400
70.49 8401
55.10 8402
64.44 8403
70.27 8404
76.22 8405
0.71. 8406
62.84 8407
67.16 8408
67.89 8409
34.64 8410
76.27 8411
83.23 8412
94.03 8413
61.18 8414
64.78 8415
17.30 8416
24.5 8417
94.72 8418
29.54 8419
76.65 8420
92.17 8421
81.68 8422
87.94 8423
92.23 8424
95.35 8425
26.89 8426
24.09 8427
74.63 8428
71.33 8429
73.13 8430
75.93 8431
72.31 8432
71.82 8433
76.91 8434
75.64 8435
67.6 8436
0.31. 8437
77.89 8438
78.22 8439
79.44 8440
80.61 8441
82.16 8442
81.52 8443
57.10 8444
69.85 8445
69.71 8446
53.72 8447
64.57 8448
70.63 8449
51.71 8450
64.06 8451
67.9 8452
0.94. 8453
95.64 8454
22.20 8455
30.58 8456
65.06 8457
0.89. 8458
31.14 8459
72.16 8460
67.79 8461
81.77 8462
72.91 8463
70.43 8464
81.29 8465
95.42 8466
95.62 8467
85.28 8468
80.94 8469
84.01 8470
84.67 8471
85.82 8472
79.05 8473
84.81 8474
80.52 8475
83.32 8476
82.27 8477
74.92 8478
74.57 8479
60.30 8480
18.70 8481
55.91 8482
85.59 8483
80.62 8484
27.60 8485
75.28 8486
24.22 8487
0.14. 8488
0.15. 8489
95.05 8490
67.73 8491
83.26 8492
81.28 8493
30.18 8494
85.52 8495
42.50 8496
66.34 8497
66.76 8498
26.07 8499
41.50 8500
40.30 8501
51.76 8502
53.79 8503
81.21 8504
29.97 8505
43.90 8506
25.3 8507
57.44 8508
24.3 8509
30.78 8510
50.80 8511
6.80 8512
1.06. 8513
73.02 8514
80.28 8515
78.55 8516
74.66 8517
70.13 8518
80.05 8519
60.11 8520
53.63 8521
30.39 8522
75.23 8523
72.29 8524
74.52 8525
31.08 8526
30.37 8527
30.09 8528
66.47 8529
69.14 8530
34.70 8531
66.19 8532
70.37 8533
17.84 8534
66.54 8535
57.30 8536
68.46 8537
70.68 8538
67.64 8539
64.9 8540
79.11 8541
63.84 8542
67.09 8543
62.19 8544
62.53 8545
70.23 8546
71.7 8547
69.89 8548
70.03 8549
71.03 8550
67.94 8551
66.39 8552
69.33 8553
74.1 8554
73.86 8555
55.53 8556
26.58 8557
82.82 8558
68.68 8559
68.45 8560
64.99 8561
65.28 8562
77.75 8563
33.10 8564
68.78 8565
71.37 8566
22.70 8567
92.13 8568
95.04 8569
85.45 8570
84.73 8571
81.78 8572
78.31 8573
82.87 8574
26.63 8575
24.53 8576
74.22 8577
89.55 8578
82.32 8579
73.69 8580
82.76 8581
74.18 8582
73.67 8583
78.23 8584
77.43 8585
66.31 8586
77.38 8587
77.39 8588
71.19 8589
74.03 8590
24.64 8591
78.96 8592
78.73 8593
53.70 8594
70.93 8595
67.2 8596
75.87 8597
65.03 8598
66.03 8599
1.13. 8600
56.62 8601
28.2 8602
26.36 8603
72.62 8604
79.79 8605
81.18 8606
86.18 8607
92.19 8608
94.22 8609
94.58 8610
79.47 8611
94.52 8612
82.61 8613
94.71 8614
85.72 8615
88.41 8616
24.46 8617
24.10 8618
31.36 8619
80.74 8620
84.32 8621
80.96 8622
79.02 8623
82.55 8624
83.43 8625
76.31 8626
79.65 8627
78.84 8628
79.54 8629
80.11 8630
73.79 8631
84.29 8632
95.09 8633
21.90 8634
84.79 8635
27.9 8636
26.69 8637
8.90 8638
83.45 8639
79.37 8640
31.67 8641
23.66 8642
84.24 8643
83.64 8644
74.37 8645
40.20 8646
1.26. 8647
46.70 8648
71.21 8649
42.20 8650
66.11 8651
62.72 8652
72.51 8653
90.34 8654
24.17 8655
1.12. 8656
48.10 8657
64.2 8658
75.88 8659
90.99 8660
58.58 8661
16.40 8662
70.6 8663
79.85 8664
64.02 8665
58.70 8666
65.97 8667
72.41 8668
74.45 8669
73.78 8670
75.25 8671
29.56 8672
70.83 8673
30.17 8674
82.51 8675
64.81 8676
72.21 8677
29.86 8678
30.91 8679
69.49 8680
32.38 8681
69.46 8682
71.3 8683
34.81 8684
72.36 8685
0.60. 8686
67.98 8687
83.17 8688
63.59 8689
63.56 8690
59.74 8691
78.42 8692
70.05 8693
71.76 8694
74.68 8695
69.69 8696
64.14 8697
71.35 8698
73.87 8699
66.6 8700
33.20 8701
73.73 8702
95.63 8703
88.04 8704
63.67 8705
63.00 8706
64.26 8707
33.60 8708
64.16 8709
69.0 8710
63.51 8711
58.90 8712
63.87 8713
67.51 8714
95.07 8715
35.10 8716
68.27 8717
33.39 8718
94.19 8719
32.20 8720
75.63 8721
71.63 8722
0.87. 8723
67.99 8724
33.00 8725
0.41. 8726
83.66 8727
76.51 8728
60.70 8729
71.96 8730
91.51 8731
95.73 8732
92.16 8733
86.38 8734
90.21 8735
80.68 8736
81.17 8737
70.42 8738
66.58 8739
72.8 8740
77.01 8741
77.86 8742
78.27 8743
76.93 8744
76.72 8745
76.79 8746
77.14 8747
76.68 8748
76.74 8749
70.44 8750
75.35 8751
73.55 8752
77.8 8753
94.99 8754
77.85 8755
77.22 8756
66.91 8757
79.96 8758
76.44 8759
54.80 8760
82.7 8761
72.52 8762
66.1 8763
17.90 8764
56.33 8765
79.72 8766
25.83 8767
26.37 8768
81.43 8769
75.58 8770
67.29 8771
80.64 8772
73.07 8773
78.35 8774
94.89 8775
82.84 8776
91.87 8777
87.54 8778
88.56 8779
20.49 8780
81.62 8781
96.14 8782
83.39 8783
87.66 8784
78.46 8785
80.34 8786
86.48 8787
80.17 8788
81.64 8789
84.39 8790
82.07 8791
81.23 8792
84.12 8793
80.63 8794
55.99 8795
81.06 8796
92.27 8797
85.68 8798
62.52 8799
64.09 8800
61.28 8801
31.33 8802
74.61 8803
84.15 8804
78.36 8805
75.09 8806
26.03 8807
23.96 8808
0.21. 8809
0.25. 8810
24.37 8811
23.60 8812
85.71 8813
0.17. 8814
71.94 8815
66.84 8816
70.98 8817
44.90 8818
29.31 8819
63.53 8820
26.31 8821
57.67 8822
8.10 8823
33.70 8824
69.88 8825
24.32 8826
47.40 8827
46.40 8828
67.02 8829
64.7 8830
46.59 8831
33.40 8832
51.39 8833
45.80 8834
47.10 8835
64.43 8836
51.92 8837
71.28 8838
66.71 8839
70.85 8840
30.44 8841
70.66 8842
30.42 8843
69.39 8844
68.9 8845
31.17 8846
25.61 8847
74.7 8848
38.50 8849
66.59 8850
37.70 8851
79.99 8852
64.84 8853
86.44 8854
81.03 8855
81.8 8856
33.80 8857
54.38 8858
91.74 8859
64.24 8860
85.08 8861
66.97 8862
65.61 8863
85.75 8864
64.49 8865
79.98 8866
90.48 8867
56.40 8868
58.80 8869
35.21 8870
75.67 8871
66.77 8872
31.7 8873
30.81 8874
73.38 8875
66.68 8876
56.70 8877
41.30 8878
64.83 8879
34.00 8880
33.73 8881
65.20 8882
34.80 8883
82.43 8884
1.24. 8885
49.50 8886
69.72 8887
23.20 8888
69.28 8889
88.37 8890
95.96 8891
64.39 8892
94.23 8893
92.21 8894
88.28 8895
84.22 8896
72.57 8897
87.65 8898
25.60 8899
31.22 8900
79.35 8901
83.53 8902
74.98 8903
76.05 8904
76.77 8905
66.33 8906
79.45 8907
69.77 8908
70.97 8909
91.67 8910
57.88 8911
0.57. 8912
83.49 8913
79.22 8914
25.24 8915
26.09 8916
71.08 8917
71.84 8918
74.77 8919
81.88 8920
86.91 8921
84.56 8922
88.21 8923
89.79 8924
90.73 8925
91.82 8926
91.98 8927
92.03 8928
94.44 8929
78.91 8930
24.74 8931
93.84 8932
87.62 8933
84.34 8934
83.96 8935
95.53 8936
79.0 8937
79.42 8938
80.5 8939
80.24 8940
80.38 8941
84.14 8942
84.71 8943
69.4 8944
84.44 8945
75.55 8946
68.84 8947
75.92 8948
83.16 8949
82.15 8950
78.67 8951
30.9 8952
17.10 8953
84.41 8954
88.59 8955
78.44 8956
74.33 8957
0.91. 8958
40.80 8959
29.52 8960
49.30 8961
1.23. 8962
25.38 8963
41.40 8964
53.91 8965
72.74 8966
75.27 8967
1.07. 8968
73.37 8969
77.13 8970
17.50 8971
45.10 8972
50.60 8973
73.26 8974
78.92 8975
54.90 8976
79.17 8977
70.76 8978
70.79 8979
30.47 8980
67.4 8981
30.71 8982
30.74 8983
65.01 8984
64.93 8985
71.04 8986
34.30 8987
31.64 8988
59.11 8989
66.87 8990
66.72 8991
44.30 8992
63.50 8993
62.54 8994
82.98 8995
70.4 8996
71.24 8997
66.3 8998
22.60 8999
71.48 9000
73.89 9001
65.81 9002
67.5 9003
30.63 9004
62.44 9005
67.80 9006
78.0 9007
83.34 9008
67.82 9009
73.64 9010
39.60 9011
65.16 9012
39.40 9013
68.29 9014
34.50 9015
64.33 9016
68.0 9017
69.1 9018
33.76 9019
0.80. 9020
0.99. 9021
53.50 9022
80.84 9023
23.10 9024
95.26 9025
95.29 9026
95.31 9027
95.75 9028
95.03 9029
61.43 9030
81.9 9031
28.8 9032
77.02 9033
72.1 9034
72.83 9035
77.66 9036
75.01 9037
76.29 9038
83.28 9039
74.04 9040
71.09 9041
76.85 9042
75.65 9043
77.0 9044
77.96 9045
0.72. 9046
79.18 9047
67.63 9048
80.59 9049
82.18 9050
70.15 9051
68.3 9052
79.29 9053
67.52 9054
70.84 9055
61.70 9056
66.28 9057
28.61 9058
28.43 9059
91.85 9060
80.26 9061
25.44 9062
16.90 9063
63.48 9064
69.98 9065
67.93 9066
91.52 9067
73.1 9068
70.74 9069
76.78 9070
87.41 9071
90.41 9072
89.71 9073
73.93 9074
95.16 9075
94.31 9076
94.57 9077
95.51 9078
80.49 9079
95.14 9080
25.99 9081
88.63 9082
85.97 9083
83.38 9084
77.12 9085
94.25 9086
82.34 9087
15.60 9088
79.46 9089
83.05 9090
81.08 9091
80.99 9092
82.69 9093
79.52 9094
82.25 9095
85.81 9096
75.49 9097
31.94 9098
88.38 9099
83.1 9100
83.74 9101
83.62 9102
84.05 9103
82.42 9104
73.63 9105
22.90 9106
85.36 9107
18.72 9108
24.2 9109
17.80 9110
84.21 9111
43.00 9112
1.09. 9113
46.30 9114
54.50 9115
54.70 9116
64.61 9117
96.36 9118
49.40 9119
78.21 9120
0.93. 9121
86.69 9122
76.18 9123
34.56 9124
71.93 9125
71.59 9126
30.24 9127
30.34 9128
69.6 9129
69.9 9130
31.00 9131
72.4 9132
63.91 9133
69.96 9134
68.87 9135
78.93 9136
39.90 9137
37.94 9138
67.28 9139
37.52 9140
26.73 9141
62.49 9142
66.26 9143
68.95 9144
65.00 9145
40.40 9146
41.10 9147
66.86 9148
26.00 9149
88.48 9150
25.46 9151
25.1 9152
64.74 9153
70.01 9154
71.8 9155
70.09 9156
65.32 9157
62.89 9158
68.5 9159
95.43 9160
80.87 9161
94.46 9162
64.40 9163
83.0 9164
77.26 9165
80.4 9166
70.53 9167
59.00 9168
45.50 9169
26.28 9170
94.64 9171
61.13 9172
89.61 9173
88.91 9174
68.43 9175
0.83. 9176
1.00. 9177
64.87 9178
79.53 9179
24.61 9180
84.19 9181
94.32 9182
85.14 9183
82.59 9184
83.86 9185
88.82 9186
89.23 9187
90.07 9188
91.66 9189
68.06 9190
71.14 9191
30.83 9192
75.29 9193
75.42 9194
77.19 9195
76.76 9196
77.67 9197
78.26 9198
77.59 9199
78.78 9200
79.61 9201
81.6 9202
86.41 9203
48.59 9204
72.88 9205
60.40 9206
60.23 9207
29.07 9208
91.64 9209
24.77 9210
72.04 9211
71.27 9212
77.29 9213
69.64 9214
83.73 9215
85.33 9216
90.04 9217
92.34 9218
74.89 9219
92.24 9220
92.12 9221
94.81 9222
86.53 9223
86.34 9224
91.83 9225
91.25 9226
79.34 9227
80.14 9228
76.23 9229
85.13 9230
84.09 9231
85.49 9232
85.53 9233
67.74 9234
75.15 9235
69.81 9236
70.47 9237
83.46 9238
75.12 9239
86.68 9240
87.07 9241
28.60 9242
88.89 9243
0.32. 9244
94.55 9245
92.05 9246
19.00 9247
62.36 9248
84.61 9249
39.00 9250
49.60 9251
40.00 9252
67.91 9253
38.80 9254
28.31 9255
46.90 9256
68.2 9257
68.1 9258
48.80 9259
54.40 9260
52.47 9261
75.85 9262
77.23 9263
64.48 9264
73.82 9265
28.83 9266
0.86. 9267
75.22 9268
79.81 9269
60.10 9270
56.10 9271
70.73 9272
62.97 9273
68.09 9274
67.24 9275
61.20 9276
60.76 9277
59.10 9278
80.7 9279
25.72 9280
84.85 9281
71.6 9282
76.8 9283
68.11 9284
68.34 9285
23.00 9286
60.20 9287
92.54 9288
85.41 9289
26.55 9290
84.82 9291
64.60 9292
73.01 9293
88.01 9294
81.7 9295
66.7 9296
71.16 9297
64.64 9298
34.20 9299
0.66. 9300
67.42 9301
31.80 9302
78.62 9303
33.30 9304
90.32 9305
20.60 9306
95.0 9307
95.23 9308
94.18 9309
95.32 9310
87.05 9311
86.08 9312
80.71 9313
68.58 9314
24.73 9315
69.5 9316
74.54 9317
15.80 9318
75.31 9319
71.44 9320
76.48 9321
76.43 9322
87.35 9323
72.61 9324
26.90 9325
77.77 9326
78.2 9327
77.31 9328
77.34 9329
0.30. 9330
80.22 9331
25.53 9332
61.10 9333
74.79 9334
80.54 9335
92.78 9336
26.47 9337
32.10 9338
67.58 9339
88.08 9340
68.97 9341
72.06 9342
69.47 9343
72.78 9344
89.32 9345
89.52 9346
91.42 9347
90.52 9348
91.86 9349
74.72 9350
94.67 9351
85.05 9352
25.80 9353
87.24 9354
86.79 9355
92.04 9356
91.56 9357
79.24 9358
80.02 9359
80.08 9360
80.29 9361
79.41 9362
79.82 9363
81.96 9364
81.44 9365
83.84 9366
80.43 9367
78.64 9368
68.66 9369
82.79 9370
85.55 9371
73.08 9372
33.69 9373
81.67 9374
69.73 9375
84.42 9376
73.61 9377
94.79 9378
92.09 9379
83.99 9380
72.9 9381
1.11. 9382
92.1 9383
42.40 9384
84.59 9385
63.61 9386
53.10 9387
29.00 9388
1.14. 9389
71.47 9390
66.78 9391
67.83 9392
30.62 9393
77.33 9394
81.5 9395
52.40 9396
8.40 9397
52.80 9398
68.94 9399
79.4 9400
76.34 9401
75.14 9402
57.90 9403
82.66 9404
30.84 9405
67.92 9406
73.28 9407
31.1 9408
68.88 9409
65.14 9410
31.49 9411
66.41 9412
65.10 9413
1.17. 9414
1.20. 9415
61.90 9416
41.60 9417
64.91 9418
78.37 9419
50.90 9420
67.76 9421
67.17 9422
62.99 9423
63.10 9424
95.67 9425
84.57 9426
74.53 9427
73.72 9428
71.31 9429
68.83 9430
30.31 9431
30.67 9432
35.20 9433
62.73 9434
63.30 9435
31.60 9436
0.56. 9437
93.77 9438
97.35 9439
68.69 9440
95.61 9441
92.38 9442
87.48 9443
86.26 9444
84.63 9445
85.64 9446
81.2 9447
86.62 9448
91.68 9449
89.04 9450
86.95 9451
92.29 9452
25.2 9453
85.54 9454
99.75 9455
18.71 9456
76.54 9457
71.67 9458
94.27 9459
73.9 9460
71.92 9461
76.96 9462
75.98 9463
75.97 9464
73.76 9465
1.21. 9466
78.39 9467
82.68 9468
68.51 9469
77.21 9470
78.68 9471
78.99 9472
79.49 9473
82.2 9474
85.39 9475
59.80 9476
69.24 9477
55.50 9478
73.94 9479
80.6 9480
25.59 9481
25.26 9482
86.22 9483
24.13 9484
81.66 9485
75.71 9486
64.62 9487
66.92 9488
67.13 9489
69.42 9490
72.5 9491
87.97 9492
85.32 9493
85.48 9494
87.67 9495
89.02 9496
80.47 9497
90.25 9498
94.7 9499
80.07 9500
85.99 9501
92.22 9502
88.74 9503
87.26 9504
87.99 9505
87.63 9506
88.45 9507
87.32 9508
79.58 9509
80.33 9510
88.25 9511
79.83 9512
79.31 9513
80.77 9514
85.11 9515
84.66 9516
91.88 9517
95.58 9518
86.47 9519
84.84 9520
74.58 9521
24.41 9522
84.17 9523
74.99 9524
84.96 9525
80.79 9526
79.07 9527
19.40 9528
88.42 9529
75.44 9530
80.88 9531
78.74 9532
80.57 9533
38.40 9534
77.4 9535
76.97 9536
73.6 9537
73.84 9538
42.80 9539
30.79 9540
47.60 9541
30.03 9542
42.00 9543
75.46 9544
23.30 9545
49.00 9546
41.70 9547
24.51 9548
40.90 9549
43.50 9550
44.20 9551
51.20 9552
1.03. 9553
15.90 9554
75.32 9555
30.69 9556
77.46 9557
89.41 9558
32.30 9559
35.50 9560
35.60 9561
38.90 9562
62.60 9563
58.48 9564
61.98 9565
74.5 9566
63.70 9567
67.01 9568
59.32 9569
67.37 9570
64.71 9571
67.18 9572
86.99 9573
84.62 9574
83.93 9575
73.54 9576
64.10 9577
64.41 9578
73.2 9579
67.43 9580
58.40 9581
39.10 9582
68.49 9583
68.86 9584
71.46 9585
77.71 9586
66.69 9587
73.5 9588
91.93 9589
25.4 9590
86.55 9591
91.02 9592
85.58 9593
84.23 9594
86.25 9595
89.65 9596
92.67 9597
30.32 9598
70.87 9599
77.11 9600
76.14 9601
73.81 9602
75.3 9603
74.13 9604
75.03 9605
72.37 9606
1.02. 9607
74.51 9608
85.37 9609
84.49 9610
76.67 9611
77.25 9612
78.52 9613
79.39 9614
79.76 9615
85.83 9616
69.94 9617
50.70 9618
72.17 9619
24.28 9620
66.16 9621
1.30. 9622
46.50 9623
24.33 9624
80.36 9625
18.90 9626
70.02 9627
73.7 9628
75.26 9629
87.37 9630
86.37 9631
85.5 9632
76.21 9633
87.69 9634
87.27 9635
84.98 9636
90.28 9637
90.79 9638
70.33 9639
87.74 9640
87.31 9641
84.78 9642
30.70 9643
92.71 9644
88.83 9645
92.65 9646
94.39 9647
78.56 9648
84.8 9649
85.56 9650
79.2 9651
83.77 9652
81.0 9653
83.30 9654
86.39 9655
74.91 9656
76.63 9657
91.91 9658
18.60 9659
85.78 9660
82.01 9661
22.10 9662
75.45 9663
83.55 9664
26.19 9665
0.43. 9666
23.90 9667
17.60 9668
72.87 9669
0.12. 9670
68.08 9671
74.15 9672
70.41 9673
85.02 9674
25.21 9675
24.87 9676
18.80 9677
24.59 9678
18.30 9679
84.72 9680
79.51 9681
82.36 9682
84.92 9683
30.82 9684
74.93 9685
74.78 9686
25.7 9687
82.4 9688
53.30 9689
43.80 9690
86.09 9691
68.19 9692
30.60 9693
51.86 9694
19.50 9695
89.73 9696
70.57 9697
70.86 9698
62.70 9699
76.0 9700
73.49 9701
73.8 9702
70.29 9703
68.8 9704
66.93 9705
30.92 9706
32.90 9707
68.52 9708
66.48 9709
72.49 9710
67.49 9711
62.30 9712
44.70 9713
59.20 9714
1.01. 9715
60.80 9716
65.80 9717
72.44 9718
64.82 9719
71.17 9720
62.77 9721
70.04 9722
87.47 9723
86.12 9724
74.43 9725
68.18 9726
73.29 9727
63.60 9728
30.66 9729
1.15. 9730
69.04 9731
32.40 9732
87.61 9733
66.50 9734
69.86 9735
67.32 9736
75.79 9737
92.85 9738
28.37 9739
99.77 9740
94.5 9741
95.3 9742
93.55 9743
85.91 9744
88.02 9745
86.71 9746
82.1 9747
85.31 9748
85.09 9749
94.88 9750
87.45 9751
89.84 9752
93.96 9753
96.08 9754
83.7 9755
78.86 9756
138.65 9757
74.34 9758
71.69 9759
75.34 9760
76.49 9761
71.86 9762
78.1 9763
75.54 9764
78.25 9765
77.08 9766
26.80 9767
81.4 9768
81.57 9769
31.50 9770
70.69 9771
66.32 9772
1.19. 9773
1.18. 9774
63.89 9775
70.28 9776
66.04 9777
70.52 9778
88.11 9779
73.58 9780
71.88 9781
72.98 9782
72.0 9783
82.3 9784
89.69 9785
81.72 9786
75.33 9787
93.21 9788
88.33 9789
85.06 9790
78.34 9791
80.93 9792
86.19 9793
79.97 9794
25.90 9795
41.00 9796
83.2 9797
88.92 9798
87.85 9799
31.42 9800
89.75 9801
0.13. 9802
85.17 9803
71.77 9804
76.94 9805
25.29 9806
84.68 9807
34.61 9808
45.20 9809
68.02 9810
36.40 9811
88.17 9812
53.00 9813
53.90 9814
1.47. 9815
51.90 9816
26.70 9817
84.43 9818
28.50 9819
70.62 9820
70.34 9821
65.60 9822
79.12 9823
68.16 9824
84.74 9825
74.23 9826
17.40 9827
92.36 9828
86.11 9829
74.69 9830
72.77 9831
64.12 9832
56.80 9833
62.40 9834
59.40 9835
30.30 9836
69.62 9837
34.90 9838
35.40 9839
85.9 9840
35.70 9841
68.67 9842
69.09 9843
95.59 9844
8.70 9845
71.06 9846
77.9 9847
86.15 9848
88.67 9849
91.84 9850
99.37 9851
97.25 9852
91.96 9853
87.81 9854
86.24 9855
87.36 9856
87.72 9857
85.65 9858
82.0 9859
81.53 9860
84.53 9861
84.58 9862
27.03 9863
100.31 9864
84.89 9865
74.88 9866
30.94 9867
76.75 9868
76.62 9869
78.14 9870
92.35 9871
77.7 9872
75.8 9873
78.59 9874
83.79 9875
70.91 9876
55.90 9877
70.16 9878
73.04 9879
16.10 9880
84.13 9881
87.29 9882
58.60 9883
28.49 9884
68.21 9885
79.91 9886
71.83 9887
71.97 9888
85.57 9889
90.49 9890
87.95 9891
92.15 9892
92.96 9893
94.91 9894
94.70 9895
91.53 9896
94.6 9897
99.49 9898
84.37 9899
88.29 9900
86.29 9901
94.06 9902
88.85 9903
90.42 9904
95.28 9905
86.93 9906
89.93 9907
82.93 9908
90.36 9909
27.40 9910
94.36 9911
78.33 9912
78.66 9913
81.1 9914
20.90 9915
74.67 9916
79.63 9917
1.31. 9918
50.20 9919
79.73 9920
19.30 9921
90.03 9922
90.12 9923
73.22 9924
75.74 9925
18.00 9926
75.77 9927
18.40 9928
69.7 9929
39.70 9930
1.46. 9931
32.60 9932
83.9 9933
40.60 9934
78.88 9935
24.60 9936
67.66 9937
49.10 9938
53.80 9939
51.40 9940
46.10 9941
1.27. 9942
49.20 9943
19.20 9944
58.10 9945
78.4 9946
72.79 9947
71.5 9948
0.75. 9949
69.03 9950
82.6 9951
83.88 9952
0.64. 9953
62.10 9954
30.72 9955
68.59 9956
66.22 9957
74.87 9958
69.61 9959
24.99 9960
74.96 9961
68.26 9962
33.50 9963
70.1 9964
68.92 9965
96.02 9966
46.60 9967
38.70 9968
30.50 9969
68.14 9970
101.57 9971
104.49 9972
95.69 9973
92.31 9974
93.71 9975
86.59 9976
84.1 9977
90.78 9978
99.71 9979
22.00 9980
71.56 9981
84.77 9982
75.61 9983
76.71 9984
76.5 9985
75.5 9986
74.38 9987
27.00 9988
91.47 9989
79.15 9990
79.59 9991
80.3 9992
57.60 9993
70.54 9994
54.30 9995
72.2 9996
70.21 9997
51.00 9998
55.70 9999
89.03 10000
